title:unconcerned, start timestamp:1741764852.494637, stop timestamp:1741764889.809570, headset type:EPOCX, headset serial:E502023B, headset firmware:730, channels:55, sampling rate:eeg_128, samples:4780      , version:2.2, 
Timestamp,OriginalTimestamp,EEG.Counter,EEG.Interpolated,EEG.AF3,EEG.F7,EEG.F3,EEG.FC5,EEG.T7,EEG.P7,EEG.O1,EEG.O2,EEG.P8,EEG.T8,EEG.FC6,EEG.F4,EEG.F8,EEG.AF4,EEG.RawCq,EEG.Battery,EEG.BatteryPercent,MarkerIndex,MarkerType,MarkerValueInt,EEG.MarkerHardware,CQ.AF3,CQ.F7,CQ.F3,CQ.FC5,CQ.T7,CQ.P7,CQ.O1,CQ.O2,CQ.P8,CQ.T8,CQ.FC6,CQ.F4,CQ.F8,CQ.AF4,CQ.Overall,EQ.SampleRateQuality,EQ.OVERALL,EQ.AF3,EQ.F7,EQ.F3,EQ.FC5,EQ.T7,EQ.P7,EQ.O1,EQ.O2,EQ.P8,EQ.T8,EQ.FC6,EQ.F4,EQ.F8,EQ.AF4
1741764852.494637,1741764852.666661,14.000000,0.000000,4290.128418,4264.102539,4291.025879,4287.820313,4271.410156,4238.205078,4277.051270,4265.256348,4253.077148,4238.846191,4402.948730,4395.512695,4365.512695,4444.487305,5768.000000,3.000000,73.000000,,,,0.000000,4.000000,4.000000,4.000000,4.000000,4.000000,4.000000,4.000000,4.000000,4.000000,4.000000,4.000000,4.000000,4.000000,4.000000,100.000000,,,,,,,,,,,,,,,,
1741764852.502445,1741764852.674569,15.000000,0.000000,4278.205078,4270.128418,4289.871582,4265.512695,4270.128418,4234.102539,4271.538574,4267.436035,4255.128418,4237.436035,4409.230957,4390.769043,4368.717773,4432.820313,6469.000000,3.000000,73.000000,,,,0.000000,4.000000,4.000000,4.000000,4.000000,4.000000,4.000000,4.000000,4.000000,4.000000,4.000000,4.000000,4.000000,4.000000,4.000000,100.000000,,,,,,,,,,,,,,,,
1741764852.510253,1741764852.682478,16.000000,0.000000,4276.922852,4257.948730,4312.563965,4265.769043,4268.333496,4232.820313,4272.692383,4274.230957,4256.922852,4243.717773,4409.871582,4401.922852,4363.461426,4448.461426,0.000000,3.000000,73.000000,,,,0.000000,4.000000,4.000000,4.000000,4.000000,4.000000,4.000000,4.000000,4.000000,4.000000,4.000000,4.000000,4.000000,4.000000,4.000000,100.000000,,,,,,,,,,,,,,,,
1741764852.518061,1741764852.690286,17.000000,0.000000,4274.487305,4246.282227,4298.717773,4270.769043,4260.000000,4233.846191,4273.333496,4264.743652,4243.974121,4237.179688,4392.820313,4402.563965,4355.000000,4438.846191,0.000000,3.000000,73.000000,,,,0.000000,4.000000,4.000000,4.000000,4.000000,4.000000,4.000000,4.000000,4.000000,4.000000,4.000000,4.000000,4.000000,4.000000,4.000000,100.000000,,,,,,,,,,,,,,,,
1741764852.525869,1741764852.698194,18.000000,0.000000,4261.025879,4252.948730,4262.307617,4269.358887,4259.230957,4232.820313,4274.230957,4261.794922,4243.717773,4228.461426,4396.538574,4388.461426,4354.358887,4418.461426,0.000000,3.000000,73.000000,,,,0.000000,4.000000,4.000000,4.000000,4.000000,4.000000,4.000000,4.000000,4.000000,4.000000,4.000000,4.000000,4.000000,4.000000,4.000000,100.000000,,,,,,,,,,,,,,,,
1741764852.533677,1741764852.706002,19.000000,0.000000,4258.589844,4243.717773,4270.128418,4268.846191,4261.794922,4229.358887,4275.641113,4258.717773,4243.461426,4230.769043,4404.615234,4385.000000,4353.333496,4427.307617,0.000000,3.000000,73.000000,,,,0.000000,4.000000,4.000000,4.000000,4.000000,4.000000,4.000000,4.000000,4.000000,4.000000,4.000000,4.000000,4.000000,4.000000,4.000000,100.000000,,,,,,,,,,,,,,,,
1741764852.541486,1741764852.713810,20.000000,0.000000,4272.307617,4229.871582,4295.897461,4270.641113,4261.153809,4224.358887,4266.282227,4246.025879,4224.871582,4228.461426,4395.000000,4390.384766,4350.256348,4430.769043,0.000000,3.000000,73.000000,,,,0.000000,4.000000,4.000000,4.000000,4.000000,4.000000,4.000000,4.000000,4.000000,4.000000,4.000000,4.000000,4.000000,4.000000,4.000000,100.000000,,,,,,,,,,,,,,,,
1741764852.549294,1741764852.721519,21.000000,0.000000,4276.153809,4242.436035,4288.846191,4281.153809,4256.538574,4222.820313,4269.743652,4250.641113,4228.205078,4220.897461,4396.794922,4385.000000,4351.410156,4414.358887,0.000000,3.000000,73.000000,,,,0.000000,4.000000,4.000000,4.000000,4.000000,4.000000,4.000000,4.000000,4.000000,4.000000,4.000000,4.000000,4.000000,4.000000,4.000000,100.000000,,,,,,,,,,,,,,,,
1741764852.557102,1741764852.729427,22.000000,0.000000,4270.769043,4255.512695,4294.487305,4292.051270,4254.358887,4225.512695,4285.000000,4268.333496,4254.358887,4231.282227,4390.897461,4393.846191,4355.256348,4415.256348,0.000000,3.000000,73.000000,,,,0.000000,4.000000,4.000000,4.000000,4.000000,4.000000,4.000000,4.000000,4.000000,4.000000,4.000000,4.000000,4.000000,4.000000,4.000000,100.000000,,,,,,,,,,,,,,,,
1741764852.564910,1741764852.737235,23.000000,0.000000,4267.436035,4255.897461,4297.948730,4288.333496,4259.230957,4225.641113,4280.256348,4266.153809,4248.589844,4239.871582,4370.000000,4418.717773,4353.717773,4425.641113,0.000000,3.000000,73.000000,,,,0.000000,4.000000,4.000000,4.000000,4.000000,4.000000,4.000000,4.000000,4.000000,4.000000,4.000000,4.000000,4.000000,4.000000,4.000000,100.000000,,,,,,,,,,,,,,,,
1741764852.572718,1741764852.745043,24.000000,0.000000,4274.487305,4253.077148,4280.256348,4284.871582,4261.282227,4217.563965,4272.051270,4251.922852,4223.974121,4223.846191,4386.666504,4411.282227,4357.948730,4422.692383,0.000000,3.000000,73.000000,,,,0.000000,4.000000,4.000000,4.000000,4.000000,4.000000,4.000000,4.000000,4.000000,4.000000,4.000000,4.000000,4.000000,4.000000,4.000000,100.000000,,,,,,,,,,,,,,,,
1741764852.580526,1741764852.752751,25.000000,0.000000,4290.897461,4253.974121,4290.000000,4295.128418,4258.461426,4210.641113,4277.820313,4259.102539,4239.487305,4226.794922,4437.820313,4401.153809,4372.051270,4428.717773,0.000000,3.000000,73.000000,,,,0.000000,4.000000,4.000000,4.000000,4.000000,4.000000,4.000000,4.000000,4.000000,4.000000,4.000000,4.000000,4.000000,4.000000,4.000000,100.000000,,,,,,,,,,,,,,,,
1741764852.588334,1741764852.760559,26.000000,0.000000,4294.743652,4259.871582,4309.358887,4309.230957,4254.615234,4212.051270,4285.384766,4275.128418,4265.897461,4252.820313,4455.769043,4411.153809,4382.051270,4445.897461,0.000000,3.000000,73.000000,,,,0.000000,4.000000,4.000000,4.000000,4.000000,4.000000,4.000000,4.000000,4.000000,4.000000,4.000000,4.000000,4.000000,4.000000,4.000000,100.000000,,,,,,,,,,,,,,,,
1741764852.596142,1741764852.768267,27.000000,0.000000,4294.871582,4264.871582,4318.333496,4322.692383,4254.487305,4208.461426,4282.436035,4272.820313,4253.974121,4254.358887,4429.743652,4425.512695,4383.077148,4450.769043,0.000000,3.000000,73.000000,,,,0.000000,4.000000,4.000000,4.000000,4.000000,4.000000,4.000000,4.000000,4.000000,4.000000,4.000000,4.000000,4.000000,4.000000,4.000000,100.000000,,,,,,,,,,,,,,,,
1741764852.603950,1741764852.776075,28.000000,0.000000,4306.922852,4271.794922,4323.077148,4326.922852,4261.666504,4203.717773,4278.461426,4269.487305,4241.666504,4249.102539,4423.717773,4443.205078,4382.179688,4455.128418,0.000000,3.000000,73.000000,,,,0.000000,4.000000,4.000000,4.000000,4.000000,4.000000,4.000000,4.000000,4.000000,4.000000,4.000000,4.000000,4.000000,4.000000,4.000000,100.000000,,,,,,,,,,,,,,,,
1741764852.611759,1741764852.783783,29.000000,0.000000,4310.641113,4278.461426,4315.256348,4327.307617,4268.077148,4207.307617,4289.615234,4282.948730,4264.487305,4260.128418,4458.589844,4445.256348,4385.256348,4463.205078,0.000000,3.000000,73.000000,,,,0.000000,4.000000,4.000000,4.000000,4.000000,4.000000,4.000000,4.000000,4.000000,4.000000,4.000000,4.000000,4.000000,4.000000,4.000000,100.000000,,,,,,,,,,,,,,,,
1741764852.619567,1741764852.791691,30.000000,0.000000,4302.692383,4278.717773,4303.461426,4345.256348,4271.794922,4206.025879,4293.717773,4289.615234,4276.153809,4265.769043,4475.512695,4438.077148,4395.000000,4466.794922,0.000000,3.000000,73.000000,,,,0.000000,4.000000,4.000000,4.000000,4.000000,4.000000,4.000000,4.000000,4.000000,4.000000,4.000000,4.000000,4.000000,4.000000,4.000000,100.000000,,,,,,,,,,,,,,,,
1741764852.627375,1741764852.799500,31.000000,0.000000,4314.871582,4272.179688,4319.487305,4360.512695,4278.846191,4202.051270,4292.307617,4286.666504,4263.461426,4263.589844,4427.179688,4455.384766,4408.333496,4472.179688,0.000000,3.000000,73.000000,,,,0.000000,4.000000,4.000000,4.000000,4.000000,4.000000,4.000000,4.000000,4.000000,4.000000,4.000000,4.000000,4.000000,4.000000,4.000000,100.000000,,,,,,,,,,,,,,,,
1741764852.635183,1741764852.807408,32.000000,0.000000,4337.179688,4280.897461,4352.436035,4363.333496,4288.333496,4206.025879,4305.000000,4301.282227,4272.307617,4272.051270,4418.717773,4482.179688,4411.282227,4487.563965,0.000000,3.000000,73.000000,,,,0.000000,4.000000,4.000000,4.000000,4.000000,4.000000,4.000000,4.000000,4.000000,4.000000,4.000000,4.000000,4.000000,4.000000,4.000000,100.000000,,,,,,,,,,,,,,,,
1741764852.642991,1741764852.815216,33.000000,0.000000,4334.358887,4304.487305,4360.769043,4384.102539,4299.230957,4205.512695,4309.230957,4314.871582,4291.538574,4284.743652,4498.205078,4479.743652,4408.461426,4504.743652,0.000000,3.000000,73.000000,,,,0.000000,4.000000,4.000000,4.000000,4.000000,4.000000,4.000000,4.000000,4.000000,4.000000,4.000000,4.000000,4.000000,4.000000,4.000000,100.000000,,,,,,,,,,,,,,,,
1741764852.650799,1741764852.823024,34.000000,0.000000,4333.461426,4314.871582,4346.025879,4411.410156,4306.794922,4197.436035,4304.743652,4309.102539,4286.794922,4284.615234,4526.282227,4471.794922,4410.384766,4498.461426,0.000000,3.000000,73.000000,,,,0.000000,4.000000,4.000000,4.000000,4.000000,4.000000,4.000000,4.000000,4.000000,4.000000,4.000000,4.000000,4.000000,4.000000,4.000000,100.000000,,,,,,,,,,,,,,,,
1741764852.658607,1741764852.830732,35.000000,0.000000,4357.948730,4314.615234,4340.769043,4411.666504,4308.333496,4192.563965,4307.051270,4308.205078,4279.102539,4273.846191,4490.256348,4477.820313,4419.871582,4491.282227,0.000000,3.000000,73.000000,,,,0.000000,4.000000,4.000000,4.000000,4.000000,4.000000,4.000000,4.000000,4.000000,4.000000,4.000000,4.000000,4.000000,4.000000,4.000000,100.000000,,,,,,,,,,,,,,,,
1741764852.666415,1741764852.838640,36.000000,0.000000,4364.871582,4315.512695,4355.384766,4403.461426,4310.256348,4190.769043,4311.282227,4314.230957,4286.410156,4269.230957,4487.948730,4476.666504,4424.230957,4500.769043,0.000000,3.000000,73.000000,,,,0.000000,4.000000,4.000000,4.000000,4.000000,4.000000,4.000000,4.000000,4.000000,4.000000,4.000000,4.000000,4.000000,4.000000,4.000000,100.000000,,,,,,,,,,,,,,,,
1741764852.674223,1741764852.846448,37.000000,0.000000,4347.179688,4318.974121,4353.077148,4421.025879,4309.487305,4187.307617,4311.410156,4313.846191,4295.384766,4278.333496,4496.025879,4471.025879,4415.897461,4496.410156,0.000000,3.000000,73.000000,,,,0.000000,4.000000,4.000000,4.000000,4.000000,4.000000,4.000000,4.000000,4.000000,4.000000,4.000000,4.000000,4.000000,4.000000,4.000000,100.000000,,,,,,,,,,,,,,,,
1741764852.682032,1741764852.854157,38.000000,0.000000,4359.230957,4328.333496,4343.589844,4448.333496,4309.230957,4183.205078,4306.922852,4310.897461,4292.436035,4288.717773,4467.692383,4480.641113,4411.410156,4491.410156,0.000000,3.000000,73.000000,,,,0.000000,4.000000,4.000000,4.000000,4.000000,4.000000,4.000000,4.000000,4.000000,4.000000,4.000000,4.000000,4.000000,4.000000,4.000000,100.000000,,,,,,,,,,,,,,,,
1741764852.689839,1741764852.861965,39.000000,0.000000,4381.922852,4332.436035,4368.974121,4443.205078,4317.692383,4187.820313,4313.205078,4319.615234,4289.615234,4289.743652,4458.461426,4496.025879,4406.666504,4489.743652,0.000000,3.000000,73.000000,,,,0.000000,4.000000,4.000000,4.000000,4.000000,4.000000,4.000000,4.000000,4.000000,4.000000,4.000000,4.000000,4.000000,4.000000,4.000000,100.000000,,,,,,,,,,,,,,,,
1741764852.697648,1741764852.869673,40.000000,0.000000,4381.922852,4328.974121,4391.922852,4438.974121,4327.820313,4196.794922,4326.410156,4338.333496,4307.179688,4300.128418,4496.025879,4502.692383,4413.077148,4490.769043,0.000000,3.000000,73.000000,,,,0.000000,4.000000,4.000000,4.000000,4.000000,4.000000,4.000000,4.000000,4.000000,4.000000,4.000000,4.000000,4.000000,4.000000,4.000000,100.000000,,,,,,,,,,,,,,,,
1741764852.705456,1741764852.877482,41.000000,0.000000,4399.743652,4339.230957,4386.538574,4469.230957,4329.487305,4198.717773,4332.051270,4352.563965,4329.743652,4316.538574,4540.128418,4514.358887,4445.384766,4521.410156,0.000000,3.000000,73.000000,,,,0.000000,4.000000,4.000000,4.000000,4.000000,4.000000,4.000000,4.000000,4.000000,4.000000,4.000000,4.000000,4.000000,4.000000,4.000000,100.000000,,,,,,,,,,,,,,,,
1741764852.713264,1741764852.885190,42.000000,0.000000,4416.666504,4347.692383,4380.769043,4471.153809,4327.179688,4196.153809,4332.692383,4350.641113,4325.128418,4313.461426,4529.615234,4516.666504,4452.692383,4539.743652,0.000000,3.000000,73.000000,,,,0.000000,4.000000,4.000000,4.000000,4.000000,4.000000,4.000000,4.000000,4.000000,4.000000,4.000000,4.000000,4.000000,4.000000,4.000000,100.000000,,,,,,,,,,,,,,,,
1741764852.721072,1741764852.892998,43.000000,0.000000,4395.128418,4339.615234,4370.128418,4451.282227,4331.153809,4193.333496,4324.358887,4339.487305,4309.358887,4300.512695,4490.897461,4497.563965,4423.974121,4515.256348,0.000000,3.000000,73.000000,,,,0.000000,4.000000,4.000000,4.000000,4.000000,4.000000,4.000000,4.000000,4.000000,4.000000,4.000000,4.000000,4.000000,4.000000,4.000000,100.000000,,,,,,,,,,,,,,,,
1741764852.728880,1741764852.900706,44.000000,0.000000,4388.461426,4332.307617,4375.256348,4462.307617,4336.922852,4197.179688,4323.077148,4340.769043,4312.948730,4300.512695,4500.384766,4500.897461,4427.051270,4516.282227,0.000000,3.000000,73.000000,,,,0.000000,4.000000,4.000000,4.000000,4.000000,4.000000,4.000000,4.000000,4.000000,4.000000,4.000000,4.000000,4.000000,4.000000,4.000000,100.000000,,,,,,,,,,,,,,,,
1741764852.736688,1741764852.908614,45.000000,0.000000,4409.871582,4327.692383,4398.589844,4481.025879,4338.461426,4202.692383,4331.025879,4348.846191,4321.538574,4310.769043,4531.153809,4519.230957,4457.436035,4551.410156,0.000000,3.000000,73.000000,,,,0.000000,4.000000,4.000000,4.000000,4.000000,4.000000,4.000000,4.000000,4.000000,4.000000,4.000000,4.000000,4.000000,4.000000,4.000000,100.000000,,,,,,,,,,,,,,,,
1741764852.744496,1741764852.916423,46.000000,0.000000,4398.846191,4332.307617,4384.615234,4473.717773,4339.871582,4200.128418,4327.307617,4344.102539,4316.922852,4304.615234,4515.641113,4508.205078,4444.871582,4542.179688,0.000000,3.000000,73.000000,,,,0.000000,4.000000,4.000000,4.000000,4.000000,4.000000,4.000000,4.000000,4.000000,4.000000,4.000000,4.000000,4.000000,4.000000,4.000000,100.000000,,,,,,,,,,,,,,,,
1741764852.752304,1741764852.924331,47.000000,0.000000,4392.948730,4355.384766,4375.128418,4462.179688,4350.384766,4204.358887,4330.769043,4344.102539,4313.333496,4289.487305,4503.461426,4503.974121,4424.487305,4517.436035,0.000000,3.000000,73.000000,,,,0.000000,4.000000,4.000000,4.000000,4.000000,4.000000,4.000000,4.000000,4.000000,4.000000,4.000000,4.000000,4.000000,4.000000,4.000000,100.000000,,,,,,,,,,,,,,,,
1741764852.760112,1741764852.932139,48.000000,0.000000,4431.282227,4366.794922,4401.538574,4481.025879,4361.410156,4215.256348,4339.230957,4351.153809,4312.692383,4295.384766,4533.205078,4525.512695,4450.128418,4540.000000,0.000000,3.000000,73.000000,,,,0.000000,4.000000,4.000000,4.000000,4.000000,4.000000,4.000000,4.000000,4.000000,4.000000,4.000000,4.000000,4.000000,4.000000,4.000000,100.000000,1.000000,25.000000,4.000000,4.000000,1.000000,3.000000,4.000000,1.000000,4.000000,4.000000,4.000000,4.000000,1.000000,3.000000,4.000000,1.000000
1741764852.767921,1741764852.939947,49.000000,0.000000,4438.333496,4347.179688,4412.948730,4503.717773,4353.846191,4211.922852,4335.384766,4347.563965,4301.922852,4307.563965,4516.666504,4524.358887,4469.358887,4565.641113,0.000000,3.000000,73.000000,,,,0.000000,4.000000,4.000000,4.000000,4.000000,4.000000,4.000000,4.000000,4.000000,4.000000,4.000000,4.000000,4.000000,4.000000,4.000000,100.000000,,,,,,,,,,,,,,,,
1741764852.775729,1741764852.947655,50.000000,0.000000,4414.102539,4342.563965,4409.230957,4501.922852,4344.615234,4200.769043,4331.410156,4341.922852,4298.589844,4308.974121,4492.436035,4520.512695,4461.153809,4567.051270,0.000000,3.000000,73.000000,,,,0.000000,4.000000,4.000000,4.000000,4.000000,4.000000,4.000000,4.000000,4.000000,4.000000,4.000000,4.000000,4.000000,4.000000,4.000000,100.000000,,,,,,,,,,,,,,,,
1741764852.783537,1741764852.955563,51.000000,0.000000,4417.436035,4372.563965,4410.000000,4495.897461,4353.846191,4204.871582,4340.000000,4351.538574,4318.077148,4323.205078,4548.974121,4550.256348,4469.871582,4571.666504,0.000000,3.000000,73.000000,,,,0.000000,4.000000,4.000000,4.000000,4.000000,4.000000,4.000000,4.000000,4.000000,4.000000,4.000000,4.000000,4.000000,4.000000,4.000000,100.000000,,,,,,,,,,,,,,,,
1741764852.791345,1741764852.963372,52.000000,0.000000,4443.205078,4386.282227,4419.358887,4505.769043,4363.717773,4215.000000,4351.282227,4365.897461,4333.205078,4341.025879,4593.717773,4569.615234,4487.179688,4585.128418,0.000000,3.000000,73.000000,,,,0.000000,4.000000,4.000000,4.000000,4.000000,4.000000,4.000000,4.000000,4.000000,4.000000,4.000000,4.000000,4.000000,4.000000,4.000000,100.000000,,,,,,,,,,,,,,,,
1741764852.799153,1741764852.971280,53.000000,0.000000,4462.563965,4379.230957,4439.102539,4523.846191,4367.436035,4215.128418,4352.307617,4375.769043,4337.563965,4331.666504,4571.666504,4563.333496,4482.948730,4591.922852,0.000000,3.000000,73.000000,,,,0.000000,4.000000,4.000000,4.000000,4.000000,4.000000,4.000000,4.000000,4.000000,4.000000,4.000000,4.000000,4.000000,4.000000,4.000000,100.000000,,,,,,,,,,,,,,,,
1741764852.806961,1741764852.979088,54.000000,0.000000,4453.589844,4382.051270,4442.820313,4529.358887,4370.384766,4218.589844,4360.512695,4385.641113,4352.948730,4323.846191,4556.282227,4562.820313,4478.461426,4600.256348,0.000000,3.000000,73.000000,,,,0.000000,4.000000,4.000000,4.000000,4.000000,4.000000,4.000000,4.000000,4.000000,4.000000,4.000000,4.000000,4.000000,4.000000,4.000000,100.000000,,,,,,,,,,,,,,,,
1741764852.814769,1741764852.986996,55.000000,0.000000,4420.256348,4374.102539,4425.000000,4520.769043,4363.205078,4221.666504,4361.538574,4380.256348,4355.512695,4331.794922,4545.769043,4561.282227,4483.974121,4606.922852,0.000000,3.000000,73.000000,,,,0.000000,4.000000,4.000000,4.000000,4.000000,4.000000,4.000000,4.000000,4.000000,4.000000,4.000000,4.000000,4.000000,4.000000,4.000000,100.000000,,,,,,,,,,,,,,,,
1741764852.822577,1741764852.994804,56.000000,0.000000,4417.563965,4354.871582,4421.410156,4510.000000,4356.666504,4218.461426,4344.487305,4368.205078,4339.743652,4336.282227,4534.615234,4551.922852,4476.410156,4586.282227,0.000000,3.000000,73.000000,,,,0.000000,4.000000,4.000000,4.000000,4.000000,4.000000,4.000000,4.000000,4.000000,4.000000,4.000000,4.000000,4.000000,4.000000,4.000000,100.000000,,,,,,,,,,,,,,,,
1741764852.830386,1741764853.002712,57.000000,0.000000,4438.717773,4365.897461,4416.538574,4503.974121,4364.743652,4225.000000,4350.384766,4377.948730,4343.846191,4333.717773,4554.615234,4550.512695,4464.102539,4572.948730,0.000000,3.000000,73.000000,,,,0.000000,4.000000,4.000000,4.000000,4.000000,4.000000,4.000000,4.000000,4.000000,4.000000,4.000000,4.000000,4.000000,4.000000,4.000000,100.000000,,,,,,,,,,,,,,,,
1741764852.838194,1741764853.010521,58.000000,0.000000,4428.461426,4381.794922,4400.512695,4493.846191,4369.230957,4227.307617,4357.051270,4387.051270,4361.922852,4333.205078,4564.743652,4559.871582,4472.307617,4591.666504,0.000000,3.000000,73.000000,,,,0.000000,4.000000,4.000000,4.000000,4.000000,4.000000,4.000000,4.000000,4.000000,4.000000,4.000000,4.000000,4.000000,4.000000,4.000000,100.000000,,,,,,,,,,,,,,,,
1741764852.846002,1741764853.018429,59.000000,0.000000,4414.358887,4359.358887,4408.974121,4484.743652,4360.897461,4214.871582,4332.820313,4361.922852,4341.282227,4330.512695,4540.256348,4555.641113,4475.769043,4589.487305,0.000000,3.000000,73.000000,,,,0.000000,4.000000,4.000000,4.000000,4.000000,4.000000,4.000000,4.000000,4.000000,4.000000,4.000000,4.000000,4.000000,4.000000,4.000000,100.000000,,,,,,,,,,,,,,,,
1741764852.853810,1741764853.026237,60.000000,0.000000,4425.128418,4346.282227,4418.205078,4493.077148,4354.358887,4212.436035,4318.846191,4333.589844,4297.948730,4317.179688,4519.358887,4529.615234,4461.410156,4562.051270,0.000000,3.000000,73.000000,,,,0.000000,4.000000,4.000000,4.000000,4.000000,4.000000,4.000000,4.000000,4.000000,4.000000,4.000000,4.000000,4.000000,4.000000,4.000000,100.000000,,,,,,,,,,,,,,,,
1741764852.861618,1741764853.034145,61.000000,0.000000,4435.128418,4376.666504,4415.512695,4508.461426,4360.384766,4223.205078,4327.692383,4342.820313,4298.461426,4317.563965,4540.384766,4522.820313,4470.897461,4570.897461,0.000000,3.000000,73.000000,,,,0.000000,4.000000,4.000000,4.000000,4.000000,4.000000,4.000000,4.000000,4.000000,4.000000,4.000000,4.000000,4.000000,4.000000,4.000000,100.000000,,,,,,,,,,,,,,,,
1741764852.869426,1741764853.041953,62.000000,0.000000,4443.205078,4398.974121,4424.871582,4515.769043,4369.871582,4227.307617,4338.589844,4361.410156,4327.692383,4333.717773,4568.974121,4549.102539,4494.487305,4598.717773,0.000000,3.000000,73.000000,,,,0.000000,4.000000,4.000000,4.000000,4.000000,4.000000,4.000000,4.000000,4.000000,4.000000,4.000000,4.000000,4.000000,4.000000,4.000000,100.000000,,,,,,,,,,,,,,,,
1741764852.877234,1741764853.049661,63.000000,0.000000,4461.922852,4397.051270,4445.000000,4531.794922,4375.769043,4228.333496,4346.922852,4370.641113,4348.717773,4345.641113,4559.230957,4585.641113,4501.538574,4608.461426,0.000000,3.000000,73.000000,,,,0.000000,4.000000,4.000000,4.000000,4.000000,4.000000,4.000000,4.000000,4.000000,4.000000,4.000000,4.000000,4.000000,4.000000,4.000000,100.000000,,,,,,,,,,,,,,,,
1741764852.885042,1741764853.057470,64.000000,0.000000,4470.000000,4400.641113,4452.051270,4553.717773,4383.974121,4235.000000,4355.512695,4381.666504,4362.051270,4355.000000,4559.615234,4597.436035,4501.282227,4615.384766,5587.000000,3.000000,73.000000,,,,0.000000,4.000000,4.000000,4.000000,4.000000,4.000000,4.000000,4.000000,4.000000,4.000000,4.000000,4.000000,4.000000,4.000000,4.000000,100.000000,,,,,,,,,,,,,,,,
1741764852.892850,1741764853.065178,65.000000,0.000000,4448.846191,4398.461426,4436.153809,4551.794922,4386.794922,4237.436035,4356.666504,4382.179688,4360.128418,4358.589844,4583.846191,4563.846191,4495.000000,4603.589844,5202.000000,3.000000,73.000000,,,,0.000000,4.000000,4.000000,4.000000,4.000000,4.000000,4.000000,4.000000,4.000000,4.000000,4.000000,4.000000,4.000000,4.000000,4.000000,100.000000,,,,,,,,,,,,,,,,
1741764852.900658,1741764853.072986,66.000000,0.000000,4424.230957,4376.282227,4417.307617,4524.230957,4379.358887,4230.897461,4350.512695,4372.563965,4352.179688,4346.538574,4562.820313,4529.615234,4487.179688,4578.461426,5489.000000,3.000000,73.000000,,,,0.000000,4.000000,4.000000,4.000000,4.000000,4.000000,4.000000,4.000000,4.000000,4.000000,4.000000,4.000000,4.000000,4.000000,4.000000,100.000000,,,,,,,,,,,,,,,,
1741764852.908466,1741764853.080694,67.000000,0.000000,4421.794922,4363.333496,4414.102539,4517.563965,4373.077148,4231.538574,4360.000000,4373.461426,4354.487305,4335.000000,4540.384766,4551.410156,4486.282227,4583.717773,5509.000000,3.000000,73.000000,,,,0.000000,4.000000,4.000000,4.000000,4.000000,4.000000,4.000000,4.000000,4.000000,4.000000,4.000000,4.000000,4.000000,4.000000,4.000000,100.000000,,,,,,,,,,,,,,,,
1741764852.916275,1741764853.088503,68.000000,0.000000,4427.051270,4372.307617,4422.179688,4536.794922,4373.974121,4238.589844,4365.256348,4377.692383,4346.538574,4339.615234,4570.897461,4575.256348,4486.410156,4602.179688,5589.000000,3.000000,73.000000,,,,0.000000,4.000000,4.000000,4.000000,4.000000,4.000000,4.000000,4.000000,4.000000,4.000000,4.000000,4.000000,4.000000,4.000000,4.000000,100.000000,,,,,,,,,,,,,,,,
1741764852.924083,1741764853.096211,69.000000,0.000000,4433.717773,4378.333496,4434.615234,4542.051270,4377.051270,4238.846191,4354.743652,4377.307617,4336.282227,4342.563965,4576.922852,4566.282227,4487.307617,4601.922852,3674.000000,3.000000,73.000000,,,,0.000000,4.000000,4.000000,4.000000,4.000000,4.000000,4.000000,4.000000,4.000000,4.000000,4.000000,4.000000,4.000000,4.000000,4.000000,100.000000,,,,,,,,,,,,,,,,
1741764852.931891,1741764853.104019,70.000000,0.000000,4439.615234,4377.179688,4442.820313,4533.205078,4377.948730,4236.410156,4356.025879,4384.102539,4347.820313,4343.846191,4546.794922,4573.461426,4487.820313,4599.102539,3334.000000,3.000000,73.000000,,,,0.000000,4.000000,4.000000,4.000000,4.000000,4.000000,4.000000,4.000000,4.000000,4.000000,4.000000,4.000000,4.000000,4.000000,4.000000,100.000000,,,,,,,,,,,,,,,,
1741764852.939699,1741764853.111728,71.000000,0.000000,4425.256348,4373.333496,4433.077148,4525.641113,4374.102539,4231.538574,4351.025879,4382.563965,4350.512695,4341.794922,4531.794922,4575.128418,4472.692383,4592.948730,5187.000000,3.000000,73.000000,,,,0.000000,4.000000,4.000000,4.000000,4.000000,4.000000,4.000000,4.000000,4.000000,4.000000,4.000000,4.000000,4.000000,4.000000,4.000000,100.000000,,,,,,,,,,,,,,,,
1741764852.947507,1741764853.119636,72.000000,0.000000,4410.769043,4361.153809,4409.487305,4512.948730,4361.794922,4227.820313,4338.717773,4367.692383,4332.051270,4321.794922,4525.897461,4538.077148,4460.512695,4568.974121,5389.000000,3.000000,73.000000,,,,0.000000,4.000000,4.000000,4.000000,4.000000,4.000000,4.000000,4.000000,4.000000,4.000000,4.000000,4.000000,4.000000,4.000000,4.000000,100.000000,,,,,,,,,,,,,,,,
1741764852.955315,1741764853.127444,73.000000,0.000000,4412.179688,4349.871582,4406.666504,4503.205078,4352.692383,4228.077148,4343.974121,4365.128418,4329.743652,4314.743652,4525.384766,4530.256348,4464.743652,4552.692383,4941.000000,3.000000,73.000000,,,,0.000000,4.000000,4.000000,4.000000,4.000000,4.000000,4.000000,4.000000,4.000000,4.000000,4.000000,4.000000,4.000000,4.000000,4.000000,100.000000,,,,,,,,,,,,,,,,
1741764852.963123,1741764853.135252,74.000000,0.000000,4411.538574,4353.846191,4427.436035,4510.897461,4357.051270,4227.307617,4348.846191,4368.205078,4338.077148,4333.846191,4546.794922,4556.410156,4470.384766,4554.487305,5829.000000,3.000000,73.000000,,,,0.000000,4.000000,4.000000,4.000000,4.000000,4.000000,4.000000,4.000000,4.000000,4.000000,4.000000,4.000000,4.000000,4.000000,4.000000,100.000000,,,,,,,,,,,,,,,,
1741764852.970931,1741764853.142960,75.000000,0.000000,4405.897461,4361.282227,4420.000000,4511.922852,4360.000000,4225.769043,4340.128418,4360.000000,4330.512695,4343.461426,4559.743652,4546.153809,4473.461426,4556.153809,6436.000000,3.000000,73.000000,,,,0.000000,4.000000,4.000000,4.000000,4.000000,4.000000,4.000000,4.000000,4.000000,4.000000,4.000000,4.000000,4.000000,4.000000,4.000000,100.000000,,,,,,,,,,,,,,,,
1741764852.978739,1741764853.150768,76.000000,0.000000,4406.282227,4356.538574,4392.179688,4500.512695,4358.205078,4220.512695,4330.769043,4350.000000,4321.666504,4339.615234,4534.102539,4517.563965,4471.153809,4547.307617,6464.000000,3.000000,73.000000,,,,0.000000,4.000000,4.000000,4.000000,4.000000,4.000000,4.000000,4.000000,4.000000,4.000000,4.000000,4.000000,4.000000,4.000000,4.000000,100.000000,,,,,,,,,,,,,,,,
1741764852.986548,1741764853.158476,77.000000,0.000000,4389.358887,4350.512695,4383.717773,4486.922852,4359.615234,4218.205078,4330.641113,4345.384766,4316.153809,4329.615234,4498.974121,4513.846191,4460.512695,4523.205078,6940.000000,3.000000,73.000000,,,,0.000000,4.000000,4.000000,4.000000,4.000000,4.000000,4.000000,4.000000,4.000000,4.000000,4.000000,4.000000,4.000000,4.000000,4.000000,100.000000,,,,,,,,,,,,,,,,
1741764852.994356,1741764853.166384,78.000000,0.000000,4370.256348,4349.743652,4382.563965,4477.436035,4365.000000,4222.948730,4331.922852,4345.128418,4317.948730,4320.256348,4510.000000,4511.666504,4461.153809,4507.307617,5829.000000,3.000000,73.000000,,,,0.000000,4.000000,4.000000,4.000000,4.000000,4.000000,4.000000,4.000000,4.000000,4.000000,4.000000,4.000000,4.000000,4.000000,4.000000,100.000000,,,,,,,,,,,,,,,,
1741764853.002164,1741764853.174192,79.000000,0.000000,4384.102539,4355.512695,4376.538574,4494.487305,4368.205078,4225.512695,4333.846191,4348.717773,4327.179688,4326.538574,4535.128418,4500.897461,4472.179688,4508.846191,6436.000000,3.000000,73.000000,,,,0.000000,4.000000,4.000000,4.000000,4.000000,4.000000,4.000000,4.000000,4.000000,4.000000,4.000000,4.000000,4.000000,4.000000,4.000000,100.000000,,,,,,,,,,,,,,,,
1741764853.009972,1741764853.182101,80.000000,0.000000,4395.512695,4357.051270,4382.179688,4513.846191,4365.000000,4228.846191,4340.769043,4349.487305,4323.717773,4330.000000,4507.692383,4506.410156,4462.307617,4507.563965,6464.000000,3.000000,73.000000,,,,0.000000,4.000000,4.000000,4.000000,4.000000,4.000000,4.000000,4.000000,4.000000,4.000000,4.000000,4.000000,4.000000,4.000000,4.000000,100.000000,,,,,,,,,,,,,,,,
1741764853.017780,1741764853.189909,81.000000,0.000000,4399.102539,4358.846191,4398.461426,4509.871582,4366.025879,4233.717773,4342.307617,4354.102539,4326.153809,4330.512695,4503.461426,4520.512695,4456.922852,4515.897461,6940.000000,3.000000,73.000000,,,,0.000000,4.000000,4.000000,4.000000,4.000000,4.000000,4.000000,4.000000,4.000000,4.000000,4.000000,4.000000,4.000000,4.000000,4.000000,100.000000,,,,,,,,,,,,,,,,
1741764853.025588,1741764853.197817,82.000000,0.000000,4412.436035,4364.358887,4410.512695,4497.307617,4370.128418,4233.333496,4344.871582,4365.384766,4342.179688,4337.307617,4544.487305,4532.436035,4471.410156,4533.589844,5829.000000,3.000000,73.000000,,,,0.000000,4.000000,4.000000,4.000000,4.000000,4.000000,4.000000,4.000000,4.000000,4.000000,4.000000,4.000000,4.000000,4.000000,4.000000,100.000000,,,,,,,,,,,,,,,,
1741764853.033396,1741764853.205625,83.000000,0.000000,4413.846191,4358.461426,4417.179688,4483.333496,4369.358887,4234.871582,4348.589844,4365.897461,4335.128418,4334.615234,4557.436035,4543.589844,4471.794922,4532.436035,6436.000000,3.000000,73.000000,,,,0.000000,4.000000,4.000000,4.000000,4.000000,4.000000,4.000000,4.000000,4.000000,4.000000,4.000000,4.000000,4.000000,4.000000,4.000000,100.000000,,,,,,,,,,,,,,,,
1741764853.041204,1741764853.213533,84.000000,0.000000,4405.000000,4359.615234,4411.410156,4489.487305,4372.307617,4241.666504,4349.358887,4375.897461,4336.538574,4334.871582,4542.436035,4550.897461,4478.333496,4536.282227,6464.000000,3.000000,73.000000,,,,0.000000,4.000000,4.000000,4.000000,4.000000,4.000000,4.000000,4.000000,4.000000,4.000000,4.000000,4.000000,4.000000,4.000000,4.000000,100.000000,,,,,,,,,,,,,,,,
1741764853.049012,1741764853.221341,85.000000,0.000000,4420.256348,4375.256348,4413.846191,4517.563965,4375.897461,4245.384766,4361.666504,4401.666504,4367.563965,4350.769043,4545.769043,4574.871582,4495.641113,4557.436035,6940.000000,3.000000,73.000000,,,,0.000000,4.000000,4.000000,4.000000,4.000000,4.000000,4.000000,4.000000,4.000000,4.000000,4.000000,4.000000,4.000000,4.000000,4.000000,100.000000,,,,,,,,,,,,,,,,
1741764853.056821,1741764853.229250,86.000000,0.000000,4438.333496,4384.743652,4431.410156,4518.846191,4373.333496,4244.102539,4368.333496,4401.410156,4361.794922,4353.461426,4558.205078,4588.846191,4492.436035,4557.179688,5829.000000,3.000000,73.000000,,,,0.000000,4.000000,4.000000,4.000000,4.000000,4.000000,4.000000,4.000000,4.000000,4.000000,4.000000,4.000000,4.000000,4.000000,4.000000,100.000000,,,,,,,,,,,,,,,,
1741764853.064628,1741764853.237158,87.000000,0.000000,4419.871582,4368.461426,4437.692383,4496.922852,4368.333496,4243.077148,4363.461426,4386.922852,4329.487305,4335.128418,4543.717773,4571.025879,4480.000000,4549.487305,6436.000000,3.000000,73.000000,,,,0.000000,4.000000,4.000000,4.000000,4.000000,4.000000,4.000000,4.000000,4.000000,4.000000,4.000000,4.000000,4.000000,4.000000,4.000000,100.000000,,,,,,,,,,,,,,,,
1741764853.072437,1741764853.244966,88.000000,0.000000,4408.974121,4346.282227,4426.410156,4503.846191,4368.717773,4241.922852,4363.974121,4386.410156,4331.282227,4324.230957,4538.589844,4559.871582,4479.487305,4552.179688,6464.000000,3.000000,73.000000,,,,0.000000,4.000000,4.000000,4.000000,4.000000,4.000000,4.000000,4.000000,4.000000,4.000000,4.000000,4.000000,4.000000,4.000000,4.000000,100.000000,,,,,,,,,,,,,,,,
1741764853.080245,1741764853.252774,89.000000,0.000000,4411.410156,4351.666504,4408.589844,4508.589844,4377.051270,4239.102539,4359.102539,4386.538574,4345.897461,4326.794922,4554.487305,4559.358887,4479.615234,4535.897461,6940.000000,3.000000,73.000000,,,,0.000000,4.000000,4.000000,4.000000,4.000000,4.000000,4.000000,4.000000,4.000000,4.000000,4.000000,4.000000,4.000000,4.000000,4.000000,100.000000,,,,,,,,,,,,,,,,
1741764853.088053,1741764853.260482,90.000000,0.000000,4396.410156,4361.794922,4397.948730,4493.974121,4379.743652,4242.436035,4355.641113,4383.205078,4344.487305,4331.794922,4553.589844,4549.487305,4473.205078,4512.436035,5829.000000,3.000000,73.000000,,,,0.000000,4.000000,4.000000,4.000000,4.000000,4.000000,4.000000,4.000000,4.000000,4.000000,4.000000,4.000000,4.000000,4.000000,4.000000,100.000000,,,,,,,,,,,,,,,,
1741764853.095861,1741764853.268291,91.000000,0.000000,4387.436035,4356.922852,4398.461426,4493.205078,4379.743652,4250.512695,4356.282227,4384.615234,4340.256348,4335.512695,4522.179688,4555.769043,4466.922852,4516.410156,6436.000000,3.000000,73.000000,,,,0.000000,4.000000,4.000000,4.000000,4.000000,4.000000,4.000000,4.000000,4.000000,4.000000,4.000000,4.000000,4.000000,4.000000,4.000000,100.000000,,,,,,,,,,,,,,,,
1741764853.103669,1741764853.275999,92.000000,0.000000,4388.974121,4353.589844,4397.820313,4492.436035,4380.000000,4250.897461,4351.025879,4384.743652,4342.436035,4337.179688,4522.436035,4562.307617,4462.307617,4523.717773,6464.000000,3.000000,73.000000,,,,0.000000,4.000000,4.000000,4.000000,4.000000,4.000000,4.000000,4.000000,4.000000,4.000000,4.000000,4.000000,4.000000,4.000000,4.000000,100.000000,,,,,,,,,,,,,,,,
1741764853.111477,1741764853.283807,93.000000,0.000000,4376.282227,4348.589844,4382.436035,4483.077148,4366.282227,4243.974121,4348.589844,4375.128418,4341.794922,4330.641113,4546.794922,4523.974121,4462.948730,4499.743652,6940.000000,3.000000,73.000000,,,,0.000000,4.000000,4.000000,4.000000,4.000000,4.000000,4.000000,4.000000,4.000000,4.000000,4.000000,4.000000,4.000000,4.000000,4.000000,100.000000,,,,,,,,,,,,,,,,
1741764853.119285,1741764853.291515,94.000000,0.000000,4361.538574,4326.282227,4373.333496,4466.922852,4349.358887,4241.282227,4344.743652,4363.461426,4333.077148,4314.358887,4536.410156,4495.897461,4460.256348,4480.128418,5829.000000,3.000000,73.000000,,,,0.000000,4.000000,4.000000,4.000000,4.000000,4.000000,4.000000,4.000000,4.000000,4.000000,4.000000,4.000000,4.000000,4.000000,4.000000,100.000000,,,,,,,,,,,,,,,,
1741764853.127093,1741764853.299324,95.000000,0.000000,4353.589844,4311.666504,4371.025879,4445.769043,4346.410156,4245.128418,4340.384766,4354.102539,4318.205078,4309.358887,4512.948730,4500.000000,4444.615234,4481.410156,6436.000000,3.000000,73.000000,,,,0.000000,4.000000,4.000000,4.000000,4.000000,4.000000,4.000000,4.000000,4.000000,4.000000,4.000000,4.000000,4.000000,4.000000,4.000000,100.000000,,,,,,,,,,,,,,,,
1741764853.134902,1741764853.307032,96.000000,0.000000,4346.025879,4316.153809,4352.692383,4447.179688,4342.692383,4244.230957,4333.974121,4346.410156,4306.922852,4311.025879,4500.256348,4496.410156,4427.692383,4478.077148,6464.000000,3.000000,73.000000,,,,0.000000,4.000000,4.000000,4.000000,4.000000,4.000000,4.000000,4.000000,4.000000,4.000000,4.000000,4.000000,4.000000,4.000000,4.000000,100.000000,,,,,,,,,,,,,,,,
1741764853.142710,1741764853.314840,97.000000,0.000000,4343.846191,4311.282227,4335.384766,4461.025879,4330.897461,4239.230957,4324.743652,4345.000000,4306.922852,4297.948730,4501.794922,4498.974121,4421.410156,4470.512695,6940.000000,3.000000,73.000000,,,,0.000000,4.000000,4.000000,4.000000,4.000000,4.000000,4.000000,4.000000,4.000000,4.000000,4.000000,4.000000,4.000000,4.000000,4.000000,100.000000,,,,,,,,,,,,,,,,
1741764853.150518,1741764853.322548,98.000000,0.000000,4335.384766,4299.487305,4345.256348,4442.307617,4327.051270,4241.922852,4328.589844,4353.333496,4313.461426,4291.153809,4492.051270,4504.487305,4425.128418,4471.794922,5829.000000,3.000000,73.000000,,,,0.000000,4.000000,4.000000,4.000000,4.000000,4.000000,4.000000,4.000000,4.000000,4.000000,4.000000,4.000000,4.000000,4.000000,4.000000,100.000000,,,,,,,,,,,,,,,,
1741764853.158326,1741764853.330456,99.000000,0.000000,4335.384766,4304.743652,4364.871582,4426.025879,4328.846191,4249.358887,4333.589844,4358.461426,4312.563965,4301.922852,4487.820313,4498.461426,4435.256348,4484.230957,6436.000000,3.000000,73.000000,,,,0.000000,4.000000,4.000000,4.000000,4.000000,4.000000,4.000000,4.000000,4.000000,4.000000,4.000000,4.000000,4.000000,4.000000,4.000000,100.000000,,,,,,,,,,,,,,,,
1741764853.166134,1741764853.338264,100.000000,0.000000,4347.179688,4307.563965,4356.666504,4438.205078,4323.717773,4252.307617,4332.307617,4347.051270,4296.538574,4298.974121,4516.410156,4493.461426,4431.922852,4477.563965,6464.000000,3.000000,73.000000,,,,0.000000,4.000000,4.000000,4.000000,4.000000,4.000000,4.000000,4.000000,4.000000,4.000000,4.000000,4.000000,4.000000,4.000000,4.000000,100.000000,,,,,,,,,,,,,,,,
1741764853.173942,1741764853.346172,101.000000,0.000000,4341.922852,4291.922852,4345.769043,4422.948730,4321.153809,4252.948730,4331.922852,4342.948730,4295.128418,4283.846191,4522.820313,4490.384766,4411.025879,4456.410156,6940.000000,3.000000,73.000000,,,,0.000000,4.000000,4.000000,4.000000,4.000000,4.000000,4.000000,4.000000,4.000000,4.000000,4.000000,4.000000,4.000000,4.000000,4.000000,100.000000,,,,,,,,,,,,,,,,
1741764853.181750,1741764853.353980,102.000000,0.000000,4331.410156,4285.000000,4350.384766,4396.025879,4318.589844,4249.358887,4324.358887,4342.692383,4300.512695,4276.538574,4471.153809,4486.794922,4404.487305,4452.820313,5829.000000,3.000000,73.000000,,,,0.000000,4.000000,4.000000,4.000000,4.000000,4.000000,4.000000,4.000000,4.000000,4.000000,4.000000,4.000000,4.000000,4.000000,4.000000,100.000000,,,,,,,,,,,,,,,,
1741764853.189558,1741764853.361789,103.000000,0.000000,4323.205078,4297.179688,4343.205078,4402.307617,4313.205078,4249.615234,4319.230957,4331.153809,4287.820313,4277.436035,4455.769043,4486.538574,4412.563965,4456.538574,6436.000000,3.000000,73.000000,,,,0.000000,4.000000,4.000000,4.000000,4.000000,4.000000,4.000000,4.000000,4.000000,4.000000,4.000000,4.000000,4.000000,4.000000,4.000000,100.000000,,,,,,,,,,,,,,,,
1741764853.197366,1741764853.369497,104.000000,0.000000,4320.897461,4308.846191,4337.692383,4413.205078,4318.077148,4259.487305,4324.358887,4330.256348,4286.153809,4286.410156,4496.794922,4488.205078,4415.769043,4466.538574,6464.000000,3.000000,73.000000,,,,0.000000,4.000000,4.000000,4.000000,4.000000,4.000000,4.000000,4.000000,4.000000,4.000000,4.000000,4.000000,4.000000,4.000000,4.000000,100.000000,,,,,,,,,,,,,,,,
1741764853.205175,1741764853.377405,105.000000,0.000000,4332.307617,4300.128418,4343.333496,4401.282227,4320.256348,4263.846191,4329.102539,4336.153809,4286.794922,4278.717773,4485.641113,4481.025879,4406.538574,4469.615234,6940.000000,3.000000,73.000000,,,,0.000000,4.000000,4.000000,4.000000,4.000000,4.000000,4.000000,4.000000,4.000000,4.000000,4.000000,4.000000,4.000000,4.000000,4.000000,100.000000,,,,,,,,,,,,,,,,
1741764853.212983,1741764853.385213,106.000000,0.000000,4330.897461,4289.743652,4334.871582,4389.871582,4306.282227,4259.615234,4324.487305,4330.641113,4278.846191,4261.410156,4459.358887,4467.692383,4399.230957,4449.102539,5829.000000,3.000000,73.000000,,,,0.000000,4.000000,4.000000,4.000000,4.000000,4.000000,4.000000,4.000000,4.000000,4.000000,4.000000,4.000000,4.000000,4.000000,4.000000,100.000000,,,,,,,,,,,,,,,,
1741764853.220791,1741764853.393121,107.000000,0.000000,4318.333496,4297.307617,4323.589844,4384.871582,4298.333496,4257.692383,4318.333496,4322.179688,4280.512695,4275.256348,4473.717773,4457.563965,4407.948730,4439.871582,6436.000000,3.000000,73.000000,,,,0.000000,4.000000,4.000000,4.000000,4.000000,4.000000,4.000000,4.000000,4.000000,4.000000,4.000000,4.000000,4.000000,4.000000,4.000000,100.000000,,,,,,,,,,,,,,,,
1741764853.228599,1741764853.400929,108.000000,0.000000,4318.461426,4287.179688,4333.589844,4367.179688,4299.615234,4265.384766,4327.307617,4326.410156,4285.512695,4287.948730,4476.538574,4463.461426,4408.846191,4452.436035,6464.000000,3.000000,73.000000,,,,0.000000,4.000000,4.000000,4.000000,4.000000,4.000000,4.000000,4.000000,4.000000,4.000000,4.000000,4.000000,4.000000,4.000000,4.000000,100.000000,,,,,,,,,,,,,,,,
1741764853.236407,1741764853.408837,109.000000,0.000000,4314.230957,4267.563965,4336.922852,4350.256348,4297.948730,4269.102539,4323.846191,4330.384766,4286.025879,4268.461426,4458.846191,4471.410156,4391.410156,4447.436035,6940.000000,3.000000,73.000000,,,,0.000000,4.000000,4.000000,4.000000,4.000000,4.000000,4.000000,4.000000,4.000000,4.000000,4.000000,4.000000,4.000000,4.000000,4.000000,100.000000,,,,,,,,,,,,,,,,
1741764853.244215,1741764853.416646,110.000000,0.000000,4294.487305,4276.538574,4321.153809,4352.436035,4297.436035,4267.179688,4309.487305,4321.666504,4276.666504,4258.846191,4452.820313,4452.179688,4382.948730,4435.384766,5829.000000,3.000000,73.000000,,,,0.000000,4.000000,4.000000,4.000000,4.000000,4.000000,4.000000,4.000000,4.000000,4.000000,4.000000,4.000000,4.000000,4.000000,4.000000,100.000000,,,,,,,,,,,,,,,,
1741764853.252023,1741764853.424554,111.000000,0.000000,4291.025879,4285.641113,4312.948730,4365.256348,4297.563965,4274.358887,4316.538574,4314.871582,4261.410156,4266.410156,4446.794922,4436.282227,4391.153809,4436.666504,6436.000000,3.000000,73.000000,,,,0.000000,4.000000,4.000000,4.000000,4.000000,4.000000,4.000000,4.000000,4.000000,4.000000,4.000000,4.000000,4.000000,4.000000,4.000000,100.000000,,,,,,,,,,,,,,,,
1741764853.259831,1741764853.432362,112.000000,0.000000,4297.820313,4275.897461,4307.563965,4352.820313,4291.025879,4269.743652,4312.563965,4307.436035,4252.051270,4257.948730,4439.871582,4440.641113,4385.384766,4427.436035,6464.000000,3.000000,73.000000,,,,0.000000,4.000000,4.000000,4.000000,4.000000,4.000000,4.000000,4.000000,4.000000,4.000000,4.000000,4.000000,4.000000,4.000000,4.000000,100.000000,1.000000,25.000000,4.000000,4.000000,1.000000,1.000000,4.000000,1.000000,4.000000,4.000000,4.000000,4.000000,1.000000,3.000000,4.000000,3.000000
1741764853.267639,1741764853.440070,113.000000,0.000000,4300.769043,4276.282227,4317.692383,4329.615234,4288.846191,4261.025879,4302.692383,4303.333496,4253.333496,4249.358887,4457.307617,4437.179688,4380.641113,4424.615234,6940.000000,3.000000,73.000000,,,,0.000000,4.000000,4.000000,4.000000,4.000000,4.000000,4.000000,4.000000,4.000000,4.000000,4.000000,4.000000,4.000000,4.000000,4.000000,100.000000,,,,,,,,,,,,,,,,
1741764853.275447,1741764853.447978,114.000000,0.000000,4305.897461,4282.436035,4338.205078,4350.769043,4298.717773,4270.128418,4311.922852,4313.589844,4257.051270,4257.820313,4459.871582,4438.846191,4391.666504,4435.256348,5829.000000,3.000000,73.000000,,,,0.000000,4.000000,4.000000,4.000000,4.000000,4.000000,4.000000,4.000000,4.000000,4.000000,4.000000,4.000000,4.000000,4.000000,4.000000,100.000000,,,,,,,,,,,,,,,,
1741764853.283255,1741764853.455787,115.000000,0.000000,4302.051270,4278.461426,4319.615234,4372.051270,4293.589844,4273.461426,4313.846191,4314.102539,4254.358887,4254.871582,4425.769043,4449.230957,4382.820313,4426.666504,6436.000000,3.000000,73.000000,,,,0.000000,4.000000,4.000000,4.000000,4.000000,4.000000,4.000000,4.000000,4.000000,4.000000,4.000000,4.000000,4.000000,4.000000,4.000000,100.000000,,,,,,,,,,,,,,,,
1741764853.291064,1741764853.463595,116.000000,0.000000,4291.922852,4279.358887,4291.282227,4354.230957,4274.743652,4258.846191,4301.538574,4297.436035,4250.512695,4239.358887,4416.538574,4433.333496,4369.358887,4419.102539,6464.000000,3.000000,73.000000,,,,0.000000,4.000000,4.000000,4.000000,4.000000,4.000000,4.000000,4.000000,4.000000,4.000000,4.000000,4.000000,4.000000,4.000000,4.000000,100.000000,,,,,,,,,,,,,,,,
1741764853.298872,1741764853.471303,117.000000,0.000000,4294.230957,4289.102539,4303.461426,4354.230957,4282.692383,4250.641113,4294.871582,4295.512695,4256.282227,4245.769043,4456.025879,4420.128418,4384.743652,4438.589844,6940.000000,3.000000,73.000000,,,,0.000000,4.000000,4.000000,4.000000,4.000000,4.000000,4.000000,4.000000,4.000000,4.000000,4.000000,4.000000,4.000000,4.000000,4.000000,100.000000,,,,,,,,,,,,,,,,
1741764853.306680,1741764853.479111,118.000000,0.000000,4325.128418,4302.307617,4337.948730,4381.282227,4307.692383,4263.077148,4314.743652,4320.256348,4280.000000,4275.000000,4488.974121,4456.538574,4407.948730,4461.282227,5829.000000,3.000000,73.000000,,,,0.000000,4.000000,4.000000,4.000000,4.000000,4.000000,4.000000,4.000000,4.000000,4.000000,4.000000,4.000000,4.000000,4.000000,4.000000,100.000000,,,,,,,,,,,,,,,,
1741764853.314488,1741764853.486820,119.000000,0.000000,4350.769043,4310.384766,4360.897461,4386.282227,4318.077148,4276.153809,4333.589844,4340.641113,4298.077148,4290.512695,4488.846191,4489.871582,4419.743652,4465.256348,6436.000000,3.000000,73.000000,,,,0.000000,4.000000,4.000000,4.000000,4.000000,4.000000,4.000000,4.000000,4.000000,4.000000,4.000000,4.000000,4.000000,4.000000,4.000000,100.000000,,,,,,,,,,,,,,,,
1741764853.322296,1741764853.494628,120.000000,0.000000,4336.025879,4306.922852,4361.922852,4385.000000,4322.820313,4276.410156,4328.205078,4339.230957,4291.666504,4283.846191,4480.641113,4485.641113,4423.717773,4458.461426,6464.000000,3.000000,73.000000,,,,0.000000,4.000000,4.000000,4.000000,4.000000,4.000000,4.000000,4.000000,4.000000,4.000000,4.000000,4.000000,4.000000,4.000000,4.000000,100.000000,,,,,,,,,,,,,,,,
1741764853.330104,1741764853.502336,121.000000,0.000000,4319.615234,4312.563965,4344.487305,4401.538574,4329.487305,4272.948730,4325.256348,4335.000000,4284.358887,4279.230957,4485.000000,4485.384766,4417.563965,4451.666504,6940.000000,3.000000,73.000000,,,,0.000000,4.000000,4.000000,4.000000,4.000000,4.000000,4.000000,4.000000,4.000000,4.000000,4.000000,4.000000,4.000000,4.000000,4.000000,100.000000,,,,,,,,,,,,,,,,
1741764853.337912,1741764853.510144,122.000000,0.000000,4334.743652,4324.743652,4342.051270,4419.615234,4339.102539,4278.077148,4333.205078,4340.384766,4290.512695,4288.461426,4496.025879,4497.692383,4423.974121,4455.000000,5829.000000,3.000000,73.000000,,,,0.000000,4.000000,4.000000,4.000000,4.000000,4.000000,4.000000,4.000000,4.000000,4.000000,4.000000,4.000000,4.000000,4.000000,4.000000,100.000000,,,,,,,,,,,,,,,,
1741764853.345720,1741764853.517852,123.000000,0.000000,4352.563965,4320.384766,4379.102539,4425.769043,4347.692383,4285.128418,4342.820313,4353.974121,4309.615234,4299.487305,4488.974121,4510.384766,4439.743652,4475.769043,6436.000000,3.000000,73.000000,,,,0.000000,4.000000,4.000000,4.000000,4.000000,4.000000,4.000000,4.000000,4.000000,4.000000,4.000000,4.000000,4.000000,4.000000,4.000000,100.000000,,,,,,,,,,,,,,,,
1741764853.353528,1741764853.525660,124.000000,0.000000,4339.487305,4320.000000,4382.436035,4413.974121,4337.563965,4270.000000,4332.436035,4347.179688,4310.256348,4293.589844,4488.846191,4506.410156,4431.538574,4483.846191,6464.000000,3.000000,73.000000,,,,0.000000,4.000000,4.000000,4.000000,4.000000,4.000000,4.000000,4.000000,4.000000,4.000000,4.000000,4.000000,4.000000,4.000000,4.000000,100.000000,,,,,,,,,,,,,,,,
1741764853.361337,1741764853.533368,125.000000,0.000000,4335.512695,4333.589844,4349.358887,4411.410156,4327.179688,4258.077148,4318.974121,4331.794922,4292.820313,4285.769043,4514.615234,4490.641113,4423.974121,4469.230957,6940.000000,3.000000,73.000000,,,,0.000000,4.000000,4.000000,4.000000,4.000000,4.000000,4.000000,4.000000,4.000000,4.000000,4.000000,4.000000,4.000000,4.000000,4.000000,100.000000,,,,,,,,,,,,,,,,
1741764853.369145,1741764853.541276,126.000000,0.000000,4367.179688,4334.743652,4356.794922,4442.436035,4343.717773,4273.461426,4336.794922,4347.820313,4302.307617,4304.358887,4497.692383,4500.384766,4436.410156,4469.487305,5829.000000,3.000000,73.000000,,,,0.000000,4.000000,4.000000,4.000000,4.000000,4.000000,4.000000,4.000000,4.000000,4.000000,4.000000,4.000000,4.000000,4.000000,4.000000,100.000000,,,,,,,,,,,,,,,,
1741764853.376953,1741764853.549084,127.000000,0.000000,4380.384766,4337.179688,4382.948730,4453.461426,4358.589844,4276.666504,4346.282227,4367.692383,4326.794922,4321.410156,4476.794922,4530.641113,4451.410156,4498.205078,73.000000,3.000000,73.000000,,,,0.000000,4.000000,4.000000,4.000000,4.000000,4.000000,4.000000,4.000000,4.000000,4.000000,4.000000,4.000000,4.000000,4.000000,4.000000,100.000000,,,,,,,,,,,,,,,,
1741764853.384761,1741764853.556992,0.000000,0.000000,4359.358887,4345.897461,4393.589844,4423.589844,4350.384766,4263.589844,4334.358887,4358.461426,4321.922852,4307.051270,4520.769043,4541.025879,4459.487305,4517.692383,5581.000000,3.000000,73.000000,,,,0.000000,4.000000,4.000000,4.000000,4.000000,4.000000,4.000000,4.000000,4.000000,4.000000,4.000000,4.000000,4.000000,4.000000,4.000000,100.000000,,,,,,,,,,,,,,,,
1741764853.392569,1741764853.564801,1.000000,0.000000,4351.025879,4341.666504,4386.666504,4427.179688,4339.487305,4260.128418,4331.282227,4342.179688,4296.282227,4296.794922,4548.461426,4522.051270,4455.512695,4505.384766,5233.000000,3.000000,73.000000,,,,0.000000,4.000000,4.000000,4.000000,4.000000,4.000000,4.000000,4.000000,4.000000,4.000000,4.000000,4.000000,4.000000,4.000000,4.000000,100.000000,,,,,,,,,,,,,,,,
1741764853.400377,1741764853.572609,2.000000,0.000000,4361.153809,4338.589844,4363.461426,4454.871582,4338.077148,4257.820313,4329.871582,4339.230957,4289.871582,4305.897461,4515.512695,4497.179688,4445.384766,4490.769043,5526.000000,3.000000,73.000000,,,,0.000000,4.000000,4.000000,4.000000,4.000000,4.000000,4.000000,4.000000,4.000000,4.000000,4.000000,4.000000,4.000000,4.000000,4.000000,100.000000,,,,,,,,,,,,,,,,
1741764853.408185,1741764853.580317,3.000000,0.000000,4358.205078,4338.846191,4355.000000,4441.794922,4337.179688,4257.820313,4330.256348,4343.333496,4300.512695,4300.512695,4495.384766,4496.153809,4441.794922,4491.410156,5477.000000,3.000000,73.000000,,,,0.000000,4.000000,4.000000,4.000000,4.000000,4.000000,4.000000,4.000000,4.000000,4.000000,4.000000,4.000000,4.000000,4.000000,4.000000,100.000000,,,,,,,,,,,,,,,,
1741764853.415993,1741764853.588225,4.000000,0.000000,4354.358887,4330.897461,4372.948730,4426.025879,4334.871582,4260.769043,4334.230957,4350.128418,4316.153809,4289.615234,4514.615234,4513.717773,4442.563965,4491.922852,5567.000000,3.000000,73.000000,,,,0.000000,4.000000,4.000000,4.000000,4.000000,4.000000,4.000000,4.000000,4.000000,4.000000,4.000000,4.000000,4.000000,4.000000,4.000000,100.000000,,,,,,,,,,,,,,,,
1741764853.423801,1741764853.596033,5.000000,0.000000,4345.512695,4330.512695,4362.563965,4432.307617,4331.666504,4257.692383,4332.692383,4349.102539,4317.307617,4300.897461,4520.897461,4502.820313,4440.769043,4480.897461,3648.000000,3.000000,73.000000,,,,0.000000,4.000000,4.000000,4.000000,4.000000,4.000000,4.000000,4.000000,4.000000,4.000000,4.000000,4.000000,4.000000,4.000000,4.000000,100.000000,,,,,,,,,,,,,,,,
1741764853.431610,1741764853.603841,6.000000,0.000000,4336.922852,4338.846191,4345.641113,4424.487305,4332.820313,4263.333496,4331.922852,4344.102539,4305.000000,4311.025879,4500.256348,4487.307617,4437.692383,4472.563965,3346.000000,3.000000,73.000000,,,,0.000000,4.000000,4.000000,4.000000,4.000000,4.000000,4.000000,4.000000,4.000000,4.000000,4.000000,4.000000,4.000000,4.000000,4.000000,100.000000,,,,,,,,,,,,,,,,
1741764853.439418,1741764853.611650,7.000000,0.000000,4360.128418,4331.794922,4373.461426,4410.384766,4334.871582,4268.846191,4332.436035,4348.205078,4311.410156,4306.025879,4505.000000,4504.102539,4434.743652,4476.538574,5192.000000,3.000000,73.000000,,,,0.000000,4.000000,4.000000,4.000000,4.000000,4.000000,4.000000,4.000000,4.000000,4.000000,4.000000,4.000000,4.000000,4.000000,4.000000,100.000000,,,,,,,,,,,,,,,,
1741764853.447226,1741764853.619558,8.000000,0.000000,4363.333496,4322.436035,4366.282227,4413.333496,4324.743652,4257.051270,4324.615234,4338.589844,4307.307617,4294.358887,4489.358887,4503.333496,4428.974121,4464.743652,5397.000000,3.000000,73.000000,,,,0.000000,4.000000,4.000000,4.000000,4.000000,4.000000,4.000000,4.000000,4.000000,4.000000,4.000000,4.000000,4.000000,4.000000,4.000000,100.000000,,,,,,,,,,,,,,,,
1741764853.455034,1741764853.627366,9.000000,0.000000,4338.077148,4330.897461,4343.974121,4399.615234,4317.179688,4249.871582,4313.333496,4318.589844,4280.769043,4282.307617,4438.461426,4482.563965,4418.974121,4454.487305,4936.000000,3.000000,73.000000,,,,0.000000,4.000000,4.000000,4.000000,4.000000,4.000000,4.000000,4.000000,4.000000,4.000000,4.000000,4.000000,4.000000,4.000000,4.000000,100.000000,,,,,,,,,,,,,,,,
1741764853.462842,1741764853.635074,10.000000,0.000000,4342.692383,4330.641113,4376.794922,4385.641113,4329.487305,4260.769043,4321.025879,4322.436035,4280.000000,4282.563965,4472.692383,4489.102539,4421.282227,4467.563965,5801.000000,3.000000,73.000000,,,,0.000000,4.000000,4.000000,4.000000,4.000000,4.000000,4.000000,4.000000,4.000000,4.000000,4.000000,4.000000,4.000000,4.000000,4.000000,100.000000,,,,,,,,,,,,,,,,
1741764853.470650,1741764853.642882,11.000000,0.000000,4361.538574,4322.307617,4385.256348,4415.384766,4340.000000,4270.000000,4336.025879,4341.922852,4302.948730,4293.974121,4539.487305,4507.307617,4439.743652,4480.384766,6399.000000,3.000000,73.000000,,,,0.000000,4.000000,4.000000,4.000000,4.000000,4.000000,4.000000,4.000000,4.000000,4.000000,4.000000,4.000000,4.000000,4.000000,4.000000,100.000000,,,,,,,,,,,,,,,,
1741764853.478458,1741764853.650591,12.000000,0.000000,4359.743652,4330.512695,4352.948730,4444.102539,4336.410156,4265.897461,4334.358887,4346.153809,4313.077148,4305.512695,4507.563965,4511.025879,4450.128418,4482.436035,6578.000000,3.000000,73.000000,,,,0.000000,4.000000,4.000000,4.000000,4.000000,4.000000,4.000000,4.000000,4.000000,4.000000,4.000000,4.000000,4.000000,4.000000,4.000000,100.000000,,,,,,,,,,,,,,,,
1741764853.486266,1741764853.658499,13.000000,0.000000,4351.410156,4334.615234,4359.230957,4436.025879,4333.205078,4260.641113,4334.230957,4341.666504,4312.179688,4309.102539,4483.846191,4513.077148,4442.563965,4486.922852,6913.000000,3.000000,73.000000,,,,0.000000,4.000000,4.000000,4.000000,4.000000,4.000000,4.000000,4.000000,4.000000,4.000000,4.000000,4.000000,4.000000,4.000000,4.000000,100.000000,,,,,,,,,,,,,,,,
1741764853.494074,1741764853.666307,14.000000,0.000000,4369.871582,4337.692383,4387.948730,4441.153809,4344.487305,4269.358887,4341.282227,4349.487305,4313.589844,4308.589844,4530.384766,4521.794922,4447.307617,4508.717773,5801.000000,3.000000,73.000000,,,,0.000000,4.000000,4.000000,4.000000,4.000000,4.000000,4.000000,4.000000,4.000000,4.000000,4.000000,4.000000,4.000000,4.000000,4.000000,100.000000,,,,,,,,,,,,,,,,
1741764853.501882,1741764853.674115,15.000000,0.000000,4392.948730,4358.974121,4395.000000,4455.769043,4357.436035,4283.205078,4347.307617,4366.153809,4322.051270,4313.461426,4537.948730,4535.000000,4465.769043,4526.153809,6399.000000,3.000000,73.000000,,,,0.000000,4.000000,4.000000,4.000000,4.000000,4.000000,4.000000,4.000000,4.000000,4.000000,4.000000,4.000000,4.000000,4.000000,4.000000,100.000000,,,,,,,,,,,,,,,,
1741764853.509691,1741764853.681824,16.000000,0.000000,4386.410156,4356.410156,4394.743652,4442.051270,4356.282227,4282.051270,4349.102539,4366.666504,4327.307617,4312.692383,4511.282227,4542.307617,4461.666504,4514.871582,0.000000,3.000000,73.000000,,,,0.000000,4.000000,4.000000,4.000000,4.000000,4.000000,4.000000,4.000000,4.000000,4.000000,4.000000,4.000000,4.000000,4.000000,4.000000,100.000000,,,,,,,,,,,,,,,,
1741764853.517499,1741764853.689732,17.000000,0.000000,4377.051270,4337.436035,4393.205078,4453.205078,4357.307617,4277.307617,4345.256348,4361.538574,4328.077148,4313.461426,4521.025879,4541.282227,4451.153809,4508.974121,0.000000,3.000000,73.000000,,,,0.000000,4.000000,4.000000,4.000000,4.000000,4.000000,4.000000,4.000000,4.000000,4.000000,4.000000,4.000000,4.000000,4.000000,4.000000,100.000000,,,,,,,,,,,,,,,,
1741764853.525307,1741764853.697540,18.000000,0.000000,4383.589844,4347.563965,4398.077148,4478.205078,4361.410156,4285.000000,4349.230957,4369.358887,4330.256348,4325.384766,4541.794922,4546.282227,4461.666504,4526.025879,0.000000,3.000000,73.000000,,,,0.000000,4.000000,4.000000,4.000000,4.000000,4.000000,4.000000,4.000000,4.000000,4.000000,4.000000,4.000000,4.000000,4.000000,4.000000,100.000000,,,,,,,,,,,,,,,,
1741764853.533115,1741764853.705348,19.000000,0.000000,4386.282227,4359.487305,4405.384766,4463.974121,4357.179688,4286.025879,4346.410156,4367.820313,4326.410156,4326.538574,4537.563965,4547.307617,4472.436035,4530.128418,0.000000,3.000000,73.000000,,,,0.000000,4.000000,4.000000,4.000000,4.000000,4.000000,4.000000,4.000000,4.000000,4.000000,4.000000,4.000000,4.000000,4.000000,4.000000,100.000000,,,,,,,,,,,,,,,,
1741764853.540923,1741764853.713056,20.000000,0.000000,4386.410156,4351.922852,4391.794922,4457.948730,4353.461426,4279.358887,4331.794922,4356.922852,4322.051270,4315.256348,4516.282227,4535.256348,4464.743652,4518.077148,0.000000,3.000000,73.000000,,,,0.000000,4.000000,4.000000,4.000000,4.000000,4.000000,4.000000,4.000000,4.000000,4.000000,4.000000,4.000000,4.000000,4.000000,4.000000,100.000000,,,,,,,,,,,,,,,,
1741764853.548731,1741764853.720864,21.000000,0.000000,4387.179688,4345.000000,4382.948730,4461.922852,4348.846191,4279.871582,4333.846191,4354.102539,4322.307617,4310.769043,4515.128418,4529.743652,4454.871582,4522.051270,0.000000,3.000000,73.000000,,,,0.000000,4.000000,4.000000,4.000000,4.000000,4.000000,4.000000,4.000000,4.000000,4.000000,4.000000,4.000000,4.000000,4.000000,4.000000,100.000000,,,,,,,,,,,,,,,,
1741764853.556539,1741764853.728572,22.000000,0.000000,4385.769043,4344.102539,4393.846191,4450.384766,4341.153809,4279.743652,4335.128418,4352.307617,4320.000000,4312.820313,4534.615234,4537.820313,4457.307617,4533.461426,0.000000,3.000000,73.000000,,,,0.000000,4.000000,4.000000,4.000000,4.000000,4.000000,4.000000,4.000000,4.000000,4.000000,4.000000,4.000000,4.000000,4.000000,4.000000,100.000000,,,,,,,,,,,,,,,,
1741764853.564347,1741764853.736480,23.000000,0.000000,4396.153809,4342.820313,4395.000000,4456.282227,4340.769043,4279.743652,4330.128418,4349.358887,4309.871582,4309.230957,4528.205078,4545.384766,4460.512695,4532.563965,0.000000,3.000000,73.000000,,,,0.000000,4.000000,4.000000,4.000000,4.000000,4.000000,4.000000,4.000000,4.000000,4.000000,4.000000,4.000000,4.000000,4.000000,4.000000,100.000000,,,,,,,,,,,,,,,,
1741764853.572155,1741764853.744288,24.000000,0.000000,4395.512695,4335.769043,4385.769043,4465.769043,4344.102539,4285.000000,4332.948730,4350.256348,4301.282227,4306.538574,4497.051270,4540.512695,4457.563965,4526.282227,0.000000,3.000000,73.000000,,,,0.000000,4.000000,4.000000,4.000000,4.000000,4.000000,4.000000,4.000000,4.000000,4.000000,4.000000,4.000000,4.000000,4.000000,4.000000,100.000000,,,,,,,,,,,,,,,,
1741764853.579964,1741764853.752197,25.000000,0.000000,4375.000000,4323.717773,4377.051270,4451.922852,4341.794922,4285.384766,4336.282227,4349.487305,4304.230957,4309.358887,4501.794922,4528.461426,4450.384766,4521.794922,0.000000,3.000000,73.000000,,,,0.000000,4.000000,4.000000,4.000000,4.000000,4.000000,4.000000,4.000000,4.000000,4.000000,4.000000,4.000000,4.000000,4.000000,4.000000,100.000000,,,,,,,,,,,,,,,,
1741764853.587772,1741764853.760005,26.000000,0.000000,4380.897461,4328.846191,4378.846191,4458.333496,4344.487305,4286.410156,4342.436035,4356.538574,4315.769043,4308.717773,4526.025879,4524.871582,4445.128418,4516.538574,0.000000,3.000000,73.000000,,,,0.000000,4.000000,4.000000,4.000000,4.000000,4.000000,4.000000,4.000000,4.000000,4.000000,4.000000,4.000000,4.000000,4.000000,4.000000,100.000000,,,,,,,,,,,,,,,,
1741764853.595580,1741764853.767913,27.000000,0.000000,4394.230957,4348.589844,4387.563965,4475.128418,4351.538574,4286.282227,4339.230957,4361.794922,4322.948730,4307.820313,4523.589844,4528.717773,4441.666504,4512.307617,0.000000,3.000000,73.000000,,,,0.000000,4.000000,4.000000,4.000000,4.000000,4.000000,4.000000,4.000000,4.000000,4.000000,4.000000,4.000000,4.000000,4.000000,4.000000,100.000000,,,,,,,,,,,,,,,,
1741764853.603388,1741764853.775721,28.000000,0.000000,4378.589844,4350.897461,4381.282227,4462.820313,4347.179688,4281.282227,4330.769043,4347.563965,4311.538574,4304.871582,4506.410156,4526.282227,4441.922852,4510.384766,0.000000,3.000000,73.000000,,,,0.000000,4.000000,4.000000,4.000000,4.000000,4.000000,4.000000,4.000000,4.000000,4.000000,4.000000,4.000000,4.000000,4.000000,4.000000,100.000000,,,,,,,,,,,,,,,,
1741764853.611196,1741764853.783629,29.000000,0.000000,4365.128418,4333.846191,4372.436035,4445.769043,4338.205078,4282.307617,4336.538574,4336.922852,4296.538574,4295.000000,4508.461426,4515.512695,4445.128418,4506.282227,0.000000,3.000000,73.000000,,,,0.000000,4.000000,4.000000,4.000000,4.000000,4.000000,4.000000,4.000000,4.000000,4.000000,4.000000,4.000000,4.000000,4.000000,4.000000,100.000000,,,,,,,,,,,,,,,,
1741764853.619004,1741764853.791437,30.000000,0.000000,4368.589844,4323.846191,4374.487305,4450.641113,4332.307617,4282.563965,4334.871582,4338.589844,4295.512695,4291.282227,4527.692383,4510.897461,4444.615234,4498.077148,0.000000,3.000000,73.000000,,,,0.000000,4.000000,4.000000,4.000000,4.000000,4.000000,4.000000,4.000000,4.000000,4.000000,4.000000,4.000000,4.000000,4.000000,4.000000,100.000000,,,,,,,,,,,,,,,,
1741764853.626812,1741764853.799246,31.000000,0.000000,4368.461426,4328.846191,4368.846191,4457.436035,4325.769043,4275.128418,4319.487305,4328.205078,4289.871582,4298.077148,4505.512695,4513.846191,4439.871582,4494.871582,0.000000,3.000000,73.000000,,,,0.000000,4.000000,4.000000,4.000000,4.000000,4.000000,4.000000,4.000000,4.000000,4.000000,4.000000,4.000000,4.000000,4.000000,4.000000,100.000000,,,,,,,,,,,,,,,,
1741764853.634620,1741764853.807054,32.000000,0.000000,4363.846191,4329.871582,4361.538574,4447.948730,4328.333496,4271.666504,4314.230957,4318.589844,4284.743652,4299.102539,4468.333496,4512.948730,4440.256348,4497.436035,0.000000,3.000000,73.000000,,,,0.000000,4.000000,4.000000,4.000000,4.000000,4.000000,4.000000,4.000000,4.000000,4.000000,4.000000,4.000000,4.000000,4.000000,4.000000,100.000000,,,,,,,,,,,,,,,,
1741764853.642428,1741764853.814762,33.000000,0.000000,4362.179688,4318.974121,4357.307617,4443.077148,4334.102539,4276.538574,4322.692383,4325.897461,4293.333496,4290.769043,4480.256348,4506.410156,4438.205078,4486.538574,0.000000,3.000000,73.000000,,,,0.000000,4.000000,4.000000,4.000000,4.000000,4.000000,4.000000,4.000000,4.000000,4.000000,4.000000,4.000000,4.000000,4.000000,4.000000,100.000000,,,,,,,,,,,,,,,,
1741764853.650236,1741764853.822570,34.000000,0.000000,4355.897461,4311.538574,4356.794922,4453.077148,4329.871582,4280.512695,4326.410156,4331.922852,4295.128418,4290.000000,4507.948730,4505.384766,4427.820313,4467.051270,0.000000,3.000000,73.000000,,,,0.000000,4.000000,4.000000,4.000000,4.000000,4.000000,4.000000,4.000000,4.000000,4.000000,4.000000,4.000000,4.000000,4.000000,4.000000,100.000000,,,,,,,,,,,,,,,,
1741764853.658044,1741764853.830279,35.000000,0.000000,4346.410156,4316.025879,4362.051270,4452.820313,4324.358887,4277.948730,4320.000000,4326.025879,4285.384766,4297.436035,4507.820313,4502.436035,4431.153809,4468.077148,0.000000,3.000000,73.000000,,,,0.000000,4.000000,4.000000,4.000000,4.000000,4.000000,4.000000,4.000000,4.000000,4.000000,4.000000,4.000000,4.000000,4.000000,4.000000,100.000000,,,,,,,,,,,,,,,,
1741764853.665853,1741764853.838087,36.000000,0.000000,4339.358887,4311.794922,4354.102539,4436.666504,4314.743652,4278.333496,4319.102539,4317.051270,4273.077148,4286.282227,4494.487305,4486.666504,4435.256348,4469.102539,0.000000,3.000000,73.000000,,,,0.000000,4.000000,4.000000,4.000000,4.000000,4.000000,4.000000,4.000000,4.000000,4.000000,4.000000,4.000000,4.000000,4.000000,4.000000,100.000000,,,,,,,,,,,,,,,,
1741764853.673661,1741764853.845795,37.000000,0.000000,4337.051270,4303.077148,4334.743652,4432.051270,4306.025879,4280.000000,4321.410156,4315.000000,4267.179688,4273.461426,4483.974121,4488.846191,4425.256348,4455.641113,0.000000,3.000000,73.000000,,,,0.000000,4.000000,4.000000,4.000000,4.000000,4.000000,4.000000,4.000000,4.000000,4.000000,4.000000,4.000000,4.000000,4.000000,4.000000,100.000000,,,,,,,,,,,,,,,,
1741764853.681469,1741764853.853603,38.000000,0.000000,4327.820313,4298.205078,4330.000000,4428.589844,4302.820313,4273.333496,4316.282227,4316.538574,4270.897461,4278.077148,4469.358887,4499.102539,4416.153809,4452.051270,0.000000,3.000000,73.000000,,,,0.000000,4.000000,4.000000,4.000000,4.000000,4.000000,4.000000,4.000000,4.000000,4.000000,4.000000,4.000000,4.000000,4.000000,4.000000,100.000000,,,,,,,,,,,,,,,,
1741764853.689277,1741764853.861312,39.000000,0.000000,4312.051270,4283.717773,4331.794922,4405.641113,4289.615234,4265.641113,4305.769043,4309.102539,4267.051270,4268.846191,4469.102539,4472.436035,4408.974121,4443.974121,0.000000,3.000000,73.000000,,,,0.000000,4.000000,4.000000,4.000000,4.000000,4.000000,4.000000,4.000000,4.000000,4.000000,4.000000,4.000000,4.000000,4.000000,4.000000,100.000000,,,,,,,,,,,,,,,,
1741764853.697085,1741764853.869220,40.000000,0.000000,4308.974121,4276.666504,4323.461426,4393.333496,4281.666504,4269.743652,4298.461426,4302.051270,4253.846191,4259.743652,4467.051270,4449.102539,4405.128418,4431.410156,0.000000,3.000000,73.000000,,,,0.000000,4.000000,4.000000,4.000000,4.000000,4.000000,4.000000,4.000000,4.000000,4.000000,4.000000,4.000000,4.000000,4.000000,4.000000,100.000000,,,,,,,,,,,,,,,,
1741764853.704893,1741764853.877028,41.000000,0.000000,4308.589844,4281.666504,4320.641113,4398.589844,4288.974121,4278.717773,4306.025879,4305.897461,4256.922852,4270.000000,4441.282227,4470.769043,4399.487305,4437.051270,0.000000,3.000000,73.000000,,,,0.000000,4.000000,4.000000,4.000000,4.000000,4.000000,4.000000,4.000000,4.000000,4.000000,4.000000,4.000000,4.000000,4.000000,4.000000,100.000000,,,,,,,,,,,,,,,,
1741764853.712701,1741764853.884936,42.000000,0.000000,4298.205078,4275.384766,4317.692383,4386.410156,4282.051270,4271.410156,4299.615234,4296.794922,4259.871582,4262.948730,4434.230957,4473.717773,4381.538574,4432.820313,0.000000,3.000000,73.000000,,,,0.000000,4.000000,4.000000,4.000000,4.000000,4.000000,4.000000,4.000000,4.000000,4.000000,4.000000,4.000000,4.000000,4.000000,4.000000,100.000000,,,,,,,,,,,,,,,,
1741764853.720509,1741764853.892744,43.000000,0.000000,4281.794922,4254.230957,4297.051270,4360.000000,4265.128418,4259.487305,4276.666504,4270.384766,4236.282227,4241.410156,4440.256348,4430.769043,4359.358887,4407.051270,0.000000,3.000000,73.000000,,,,0.000000,4.000000,4.000000,4.000000,4.000000,4.000000,4.000000,4.000000,4.000000,4.000000,4.000000,4.000000,4.000000,4.000000,4.000000,100.000000,,,,,,,,,,,,,,,,
1741764853.728318,1741764853.900652,44.000000,0.000000,4265.769043,4237.692383,4277.820313,4348.461426,4261.153809,4263.461426,4277.179688,4262.948730,4224.615234,4242.820313,4417.436035,4403.717773,4354.102539,4395.384766,0.000000,3.000000,73.000000,,,,0.000000,4.000000,4.000000,4.000000,4.000000,4.000000,4.000000,4.000000,4.000000,4.000000,4.000000,4.000000,4.000000,4.000000,4.000000,100.000000,,,,,,,,,,,,,,,,
1741764853.736126,1741764853.908461,45.000000,0.000000,4260.769043,4240.000000,4275.769043,4351.538574,4261.282227,4267.692383,4284.230957,4272.436035,4237.051270,4251.410156,4406.153809,4409.487305,4362.436035,4407.307617,0.000000,3.000000,73.000000,,,,0.000000,4.000000,4.000000,4.000000,4.000000,4.000000,4.000000,4.000000,4.000000,4.000000,4.000000,4.000000,4.000000,4.000000,4.000000,100.000000,,,,,,,,,,,,,,,,
1741764853.743934,1741764853.916369,46.000000,0.000000,4268.461426,4250.256348,4288.974121,4355.256348,4262.179688,4267.820313,4284.230957,4276.666504,4240.256348,4245.512695,4424.358887,4421.666504,4366.282227,4421.025879,0.000000,3.000000,73.000000,,,,0.000000,4.000000,4.000000,4.000000,4.000000,4.000000,4.000000,4.000000,4.000000,4.000000,4.000000,4.000000,4.000000,4.000000,4.000000,100.000000,,,,,,,,,,,,,,,,
1741764853.751742,1741764853.924177,47.000000,0.000000,4268.717773,4246.922852,4291.025879,4349.615234,4266.538574,4270.128418,4287.820313,4276.666504,4232.307617,4243.077148,4395.641113,4423.717773,4357.179688,4420.769043,0.000000,3.000000,73.000000,,,,0.000000,4.000000,4.000000,4.000000,4.000000,4.000000,4.000000,4.000000,4.000000,4.000000,4.000000,4.000000,4.000000,4.000000,4.000000,100.000000,,,,,,,,,,,,,,,,
1741764853.759550,1741764853.931985,48.000000,0.000000,4252.307617,4229.615234,4274.743652,4331.922852,4258.717773,4268.461426,4285.897461,4275.769043,4231.666504,4233.589844,4361.025879,4409.487305,4337.179688,4402.307617,0.000000,3.000000,73.000000,,,,0.000000,4.000000,4.000000,4.000000,4.000000,4.000000,4.000000,4.000000,4.000000,4.000000,4.000000,4.000000,4.000000,4.000000,4.000000,100.000000,1.000000,25.000000,4.000000,4.000000,1.000000,1.000000,3.000000,3.000000,4.000000,4.000000,4.000000,4.000000,1.000000,3.000000,4.000000,4.000000
1741764853.767358,1741764853.939693,49.000000,0.000000,4244.358887,4225.000000,4269.615234,4323.077148,4245.000000,4262.563965,4278.846191,4265.256348,4227.307617,4218.974121,4397.436035,4395.769043,4330.384766,4393.589844,0.000000,3.000000,73.000000,,,,0.000000,4.000000,4.000000,4.000000,4.000000,4.000000,4.000000,4.000000,4.000000,4.000000,4.000000,4.000000,4.000000,4.000000,4.000000,100.000000,,,,,,,,,,,,,,,,
1741764853.775166,1741764853.947601,50.000000,0.000000,4262.307617,4243.333496,4283.717773,4332.948730,4252.051270,4262.820313,4274.230957,4258.077148,4217.820313,4233.205078,4431.922852,4413.333496,4351.025879,4418.461426,0.000000,3.000000,73.000000,,,,0.000000,4.000000,4.000000,4.000000,4.000000,4.000000,4.000000,4.000000,4.000000,4.000000,4.000000,4.000000,4.000000,4.000000,4.000000,100.000000,,,,,,,,,,,,,,,,
1741764853.782974,1741764853.955410,51.000000,0.000000,4283.461426,4255.769043,4295.128418,4339.230957,4269.743652,4271.538574,4279.871582,4271.794922,4228.717773,4254.102539,4413.333496,4442.307617,4372.563965,4447.436035,0.000000,3.000000,73.000000,,,,0.000000,4.000000,4.000000,4.000000,4.000000,4.000000,4.000000,4.000000,4.000000,4.000000,4.000000,4.000000,4.000000,4.000000,4.000000,100.000000,,,,,,,,,,,,,,,,
1741764853.790782,1741764853.963318,52.000000,0.000000,4279.743652,4253.205078,4295.897461,4335.256348,4269.871582,4274.871582,4285.256348,4281.794922,4243.333496,4255.897461,4405.897461,4443.589844,4370.128418,4451.282227,0.000000,3.000000,73.000000,,,,0.000000,4.000000,4.000000,4.000000,4.000000,4.000000,4.000000,4.000000,4.000000,4.000000,4.000000,4.000000,4.000000,4.000000,4.000000,100.000000,,,,,,,,,,,,,,,,
1741764853.798591,1741764853.971126,53.000000,0.000000,4270.384766,4251.538574,4294.615234,4335.512695,4264.743652,4272.948730,4284.871582,4274.487305,4236.282227,4251.153809,4423.974121,4436.666504,4360.512695,4446.025879,0.000000,3.000000,73.000000,,,,0.000000,4.000000,4.000000,4.000000,4.000000,4.000000,4.000000,4.000000,4.000000,4.000000,4.000000,4.000000,4.000000,4.000000,4.000000,100.000000,,,,,,,,,,,,,,,,
1741764853.806399,1741764853.978834,54.000000,0.000000,4275.256348,4254.358887,4297.436035,4338.205078,4270.384766,4280.000000,4295.384766,4281.410156,4236.282227,4247.179688,4426.922852,4439.358887,4357.436035,4446.922852,0.000000,3.000000,73.000000,,,,0.000000,4.000000,4.000000,4.000000,4.000000,4.000000,4.000000,4.000000,4.000000,4.000000,4.000000,4.000000,4.000000,4.000000,4.000000,100.000000,,,,,,,,,,,,,,,,
1741764853.814207,1741764853.986742,55.000000,0.000000,4276.538574,4257.307617,4297.436035,4339.487305,4280.512695,4283.205078,4297.307617,4293.333496,4248.077148,4247.051270,4421.153809,4435.769043,4358.333496,4448.333496,0.000000,3.000000,73.000000,,,,0.000000,4.000000,4.000000,4.000000,4.000000,4.000000,4.000000,4.000000,4.000000,4.000000,4.000000,4.000000,4.000000,4.000000,4.000000,100.000000,,,,,,,,,,,,,,,,
1741764853.822015,1741764853.994551,56.000000,0.000000,4269.487305,4256.153809,4293.589844,4342.820313,4284.487305,4279.487305,4289.102539,4283.974121,4240.512695,4250.512695,4412.820313,4429.102539,4360.384766,4451.410156,0.000000,3.000000,73.000000,,,,0.000000,4.000000,4.000000,4.000000,4.000000,4.000000,4.000000,4.000000,4.000000,4.000000,4.000000,4.000000,4.000000,4.000000,4.000000,100.000000,,,,,,,,,,,,,,,,
1741764853.829823,1741764854.002359,57.000000,0.000000,4277.948730,4261.538574,4300.769043,4352.563965,4288.077148,4286.794922,4299.743652,4288.589844,4245.897461,4255.641113,4422.436035,4436.666504,4366.025879,4463.205078,0.000000,3.000000,73.000000,,,,0.000000,4.000000,4.000000,4.000000,4.000000,4.000000,4.000000,4.000000,4.000000,4.000000,4.000000,4.000000,4.000000,4.000000,4.000000,100.000000,,,,,,,,,,,,,,,,
1741764853.837631,1741764854.010067,58.000000,0.000000,4296.794922,4276.794922,4313.333496,4362.820313,4294.230957,4293.461426,4306.153809,4306.153809,4266.922852,4261.794922,4436.410156,4452.820313,4382.307617,4474.871582,0.000000,3.000000,73.000000,,,,0.000000,4.000000,4.000000,4.000000,4.000000,4.000000,4.000000,4.000000,4.000000,4.000000,4.000000,4.000000,4.000000,4.000000,4.000000,100.000000,,,,,,,,,,,,,,,,
1741764853.845439,1741764854.017875,59.000000,0.000000,4294.230957,4275.000000,4310.000000,4355.641113,4286.153809,4285.384766,4295.128418,4291.025879,4246.410156,4250.769043,4407.563965,4457.436035,4380.384766,4464.358887,0.000000,3.000000,73.000000,,,,0.000000,4.000000,4.000000,4.000000,4.000000,4.000000,4.000000,4.000000,4.000000,4.000000,4.000000,4.000000,4.000000,4.000000,4.000000,100.000000,,,,,,,,,,,,,,,,
1741764853.853247,1741764854.025584,60.000000,0.000000,4282.307617,4261.025879,4302.179688,4342.179688,4273.205078,4279.743652,4286.794922,4271.282227,4222.051270,4237.307617,4408.205078,4449.743652,4365.128418,4451.666504,0.000000,3.000000,73.000000,,,,0.000000,4.000000,4.000000,4.000000,4.000000,4.000000,4.000000,4.000000,4.000000,4.000000,4.000000,4.000000,4.000000,4.000000,4.000000,100.000000,,,,,,,,,,,,,,,,
1741764853.861055,1741764854.033392,61.000000,0.000000,4282.820313,4261.666504,4305.128418,4341.538574,4270.384766,4284.487305,4288.717773,4281.794922,4237.948730,4243.589844,4428.077148,4443.974121,4367.436035,4456.794922,0.000000,3.000000,73.000000,,,,0.000000,4.000000,4.000000,4.000000,4.000000,4.000000,4.000000,4.000000,4.000000,4.000000,4.000000,4.000000,4.000000,4.000000,4.000000,100.000000,,,,,,,,,,,,,,,,
1741764853.868863,1741764854.041100,62.000000,0.000000,4291.410156,4270.897461,4313.974121,4344.230957,4274.743652,4292.436035,4297.820313,4294.358887,4252.692383,4251.410156,4396.282227,4457.051270,4372.179688,4464.358887,0.000000,3.000000,73.000000,,,,0.000000,4.000000,4.000000,4.000000,4.000000,4.000000,4.000000,4.000000,4.000000,4.000000,4.000000,4.000000,4.000000,4.000000,4.000000,100.000000,,,,,,,,,,,,,,,,
1741764853.876671,1741764854.048908,63.000000,0.000000,4296.410156,4272.051270,4318.974121,4342.436035,4281.282227,4295.000000,4297.820313,4294.230957,4254.615234,4255.384766,4400.512695,4462.307617,4371.153809,4469.743652,0.000000,3.000000,73.000000,,,,0.000000,4.000000,4.000000,4.000000,4.000000,4.000000,4.000000,4.000000,4.000000,4.000000,4.000000,4.000000,4.000000,4.000000,4.000000,100.000000,,,,,,,,,,,,,,,,
1741764853.884480,1741764854.056617,64.000000,0.000000,4292.948730,4270.512695,4319.230957,4338.974121,4282.307617,4292.307617,4296.025879,4295.128418,4253.974121,4261.153809,4439.743652,4455.384766,4367.563965,4467.563965,5531.000000,3.000000,73.000000,,,,0.000000,4.000000,4.000000,4.000000,4.000000,4.000000,4.000000,4.000000,4.000000,4.000000,4.000000,4.000000,4.000000,4.000000,4.000000,100.000000,,,,,,,,,,,,,,,,
1741764853.892288,1741764854.064425,65.000000,0.000000,4287.307617,4272.051270,4320.512695,4335.384766,4283.589844,4288.205078,4298.589844,4293.333496,4244.487305,4247.948730,4406.666504,4462.307617,4358.974121,4457.436035,5242.000000,3.000000,73.000000,,,,0.000000,4.000000,4.000000,4.000000,4.000000,4.000000,4.000000,4.000000,4.000000,4.000000,4.000000,4.000000,4.000000,4.000000,4.000000,100.000000,,,,,,,,,,,,,,,,
1741764853.900096,1741764854.072133,66.000000,0.000000,4283.974121,4273.205078,4323.205078,4334.615234,4287.307617,4287.436035,4299.358887,4293.717773,4249.615234,4236.538574,4387.563965,4461.025879,4357.692383,4451.153809,5524.000000,3.000000,73.000000,,,,0.000000,4.000000,4.000000,4.000000,4.000000,4.000000,4.000000,4.000000,4.000000,4.000000,4.000000,4.000000,4.000000,4.000000,4.000000,100.000000,,,,,,,,,,,,,,,,
1741764853.907904,1741764854.080041,67.000000,0.000000,4288.589844,4275.769043,4327.436035,4338.205078,4289.615234,4290.769043,4300.897461,4300.128418,4265.000000,4253.846191,4425.512695,4447.820313,4370.256348,4457.179688,5502.000000,3.000000,73.000000,,,,0.000000,4.000000,4.000000,4.000000,4.000000,4.000000,4.000000,4.000000,4.000000,4.000000,4.000000,4.000000,4.000000,4.000000,4.000000,100.000000,,,,,,,,,,,,,,,,
1741764853.915712,1741764854.087849,68.000000,0.000000,4298.717773,4283.846191,4335.256348,4342.436035,4289.871582,4288.717773,4297.179688,4298.974121,4257.051270,4262.692383,4403.846191,4456.538574,4375.512695,4470.512695,5577.000000,3.000000,73.000000,,,,0.000000,4.000000,4.000000,4.000000,4.000000,4.000000,4.000000,4.000000,4.000000,4.000000,4.000000,4.000000,4.000000,4.000000,4.000000,100.000000,,,,,,,,,,,,,,,,
1741764853.923520,1741764854.095758,69.000000,0.000000,4305.641113,4292.179688,4343.205078,4346.538574,4290.512695,4290.384766,4299.358887,4296.153809,4248.333496,4255.128418,4390.128418,4475.769043,4367.948730,4467.692383,3643.000000,3.000000,73.000000,,,,0.000000,4.000000,4.000000,4.000000,4.000000,4.000000,4.000000,4.000000,4.000000,4.000000,4.000000,4.000000,4.000000,4.000000,4.000000,100.000000,,,,,,,,,,,,,,,,
1741764853.931328,1741764854.103566,70.000000,0.000000,4307.436035,4296.025879,4347.179688,4349.615234,4297.051270,4296.666504,4306.282227,4303.717773,4263.461426,4265.512695,4467.563965,4471.666504,4371.922852,4459.230957,3368.000000,3.000000,73.000000,,,,0.000000,4.000000,4.000000,4.000000,4.000000,4.000000,4.000000,4.000000,4.000000,4.000000,4.000000,4.000000,4.000000,4.000000,4.000000,100.000000,,,,,,,,,,,,,,,,
1741764853.939136,1741764854.111474,71.000000,0.000000,4316.282227,4302.179688,4351.282227,4352.692383,4307.179688,4294.871582,4309.358887,4313.205078,4275.256348,4278.205078,4487.307617,4473.077148,4382.179688,4472.948730,5185.000000,3.000000,73.000000,,,,0.000000,4.000000,4.000000,4.000000,4.000000,4.000000,4.000000,4.000000,4.000000,4.000000,4.000000,4.000000,4.000000,4.000000,4.000000,100.000000,,,,,,,,,,,,,,,,
1741764853.946944,1741764854.119282,72.000000,0.000000,4322.948730,4309.871582,4356.153809,4356.538574,4308.461426,4296.410156,4314.487305,4316.153809,4269.230957,4270.384766,4411.794922,4500.769043,4376.025879,4486.025879,5394.000000,3.000000,73.000000,,,,0.000000,4.000000,4.000000,4.000000,4.000000,4.000000,4.000000,4.000000,4.000000,4.000000,4.000000,4.000000,4.000000,4.000000,4.000000,100.000000,,,,,,,,,,,,,,,,
1741764853.954753,1741764854.127190,73.000000,0.000000,4309.871582,4304.487305,4344.358887,4349.230957,4298.333496,4295.000000,4308.461426,4307.948730,4261.025879,4256.538574,4394.743652,4500.000000,4367.051270,4469.230957,4956.000000,3.000000,73.000000,,,,0.000000,4.000000,4.000000,4.000000,4.000000,4.000000,4.000000,4.000000,4.000000,4.000000,4.000000,4.000000,4.000000,4.000000,4.000000,100.000000,,,,,,,,,,,,,,,,
1741764853.962561,1741764854.134998,74.000000,0.000000,4299.230957,4290.000000,4329.615234,4334.358887,4290.897461,4283.205078,4300.769043,4296.794922,4254.615234,4251.538574,4449.487305,4473.333496,4367.179688,4457.563965,5733.000000,3.000000,73.000000,,,,0.000000,4.000000,4.000000,4.000000,4.000000,4.000000,4.000000,4.000000,4.000000,4.000000,4.000000,4.000000,4.000000,4.000000,4.000000,100.000000,,,,,,,,,,,,,,,,
1741764853.970369,1741764854.142906,75.000000,0.000000,4300.128418,4285.512695,4333.205078,4329.230957,4289.743652,4278.205078,4305.000000,4301.282227,4257.692383,4257.436035,4465.897461,4472.307617,4368.717773,4474.871582,6456.000000,3.000000,73.000000,,,,0.000000,4.000000,4.000000,4.000000,4.000000,4.000000,4.000000,4.000000,4.000000,4.000000,4.000000,4.000000,4.000000,4.000000,4.000000,100.000000,,,,,,,,,,,,,,,,
1741764853.978177,1741764854.150715,76.000000,0.000000,4297.051270,4289.615234,4339.743652,4329.102539,4290.000000,4284.871582,4309.230957,4314.487305,4273.589844,4264.358887,4437.436035,4486.666504,4372.179688,4475.128418,6578.000000,3.000000,73.000000,,,,0.000000,4.000000,4.000000,4.000000,4.000000,4.000000,4.000000,4.000000,4.000000,4.000000,4.000000,4.000000,4.000000,4.000000,4.000000,100.000000,,,,,,,,,,,,,,,,
1741764853.985985,1741764854.158623,77.000000,0.000000,4292.948730,4287.436035,4332.948730,4322.051270,4286.794922,4286.410156,4307.948730,4307.436035,4266.410156,4257.179688,4431.153809,4473.974121,4376.922852,4453.077148,6975.000000,3.000000,73.000000,,,,0.000000,4.000000,4.000000,4.000000,4.000000,4.000000,4.000000,4.000000,4.000000,4.000000,4.000000,4.000000,4.000000,4.000000,4.000000,100.000000,,,,,,,,,,,,,,,,
1741764853.993793,1741764854.166431,78.000000,0.000000,4289.871582,4283.589844,4322.563965,4312.051270,4281.794922,4279.102539,4298.333496,4288.846191,4239.230957,4249.743652,4449.102539,4463.461426,4370.512695,4449.487305,5733.000000,3.000000,73.000000,,,,0.000000,4.000000,4.000000,4.000000,4.000000,4.000000,4.000000,4.000000,4.000000,4.000000,4.000000,4.000000,4.000000,4.000000,4.000000,100.000000,,,,,,,,,,,,,,,,
1741764854.001601,1741764854.174339,79.000000,0.000000,4279.743652,4283.205078,4320.000000,4306.153809,4281.794922,4276.666504,4298.717773,4292.692383,4242.307617,4254.615234,4443.077148,4478.461426,4361.922852,4459.871582,6456.000000,3.000000,73.000000,,,,0.000000,4.000000,4.000000,4.000000,4.000000,4.000000,4.000000,4.000000,4.000000,4.000000,4.000000,4.000000,4.000000,4.000000,4.000000,100.000000,,,,,,,,,,,,,,,,
1741764854.009409,1741764854.182147,80.000000,0.000000,4278.205078,4285.000000,4325.512695,4304.358887,4282.820313,4280.512695,4312.692383,4310.128418,4271.538574,4259.871582,4425.384766,4484.615234,4369.487305,4462.820313,6578.000000,3.000000,73.000000,,,,0.000000,4.000000,4.000000,4.000000,4.000000,4.000000,4.000000,4.000000,4.000000,4.000000,4.000000,4.000000,4.000000,4.000000,4.000000,100.000000,,,,,,,,,,,,,,,,
1741764854.017217,1741764854.189856,81.000000,0.000000,4293.974121,4290.641113,4331.666504,4302.692383,4282.692383,4284.871582,4315.384766,4310.128418,4274.487305,4262.051270,4442.820313,4477.051270,4380.128418,4467.563965,6975.000000,3.000000,73.000000,,,,0.000000,4.000000,4.000000,4.000000,4.000000,4.000000,4.000000,4.000000,4.000000,4.000000,4.000000,4.000000,4.000000,4.000000,4.000000,100.000000,,,,,,,,,,,,,,,,
1741764854.025025,1741764854.197764,82.000000,0.000000,4295.769043,4289.102539,4330.128418,4295.128418,4281.538574,4289.871582,4311.538574,4298.974121,4254.871582,4257.179688,4459.358887,4473.205078,4376.794922,4470.000000,5733.000000,3.000000,73.000000,,,,0.000000,4.000000,4.000000,4.000000,4.000000,4.000000,4.000000,4.000000,4.000000,4.000000,4.000000,4.000000,4.000000,4.000000,4.000000,100.000000,,,,,,,,,,,,,,,,
1741764854.032834,1741764854.205572,83.000000,0.000000,4286.794922,4282.179688,4327.179688,4286.794922,4281.025879,4281.153809,4299.743652,4289.871582,4249.871582,4246.538574,4426.282227,4469.615234,4366.666504,4455.256348,6456.000000,3.000000,73.000000,,,,0.000000,4.000000,4.000000,4.000000,4.000000,4.000000,4.000000,4.000000,4.000000,4.000000,4.000000,4.000000,4.000000,4.000000,4.000000,100.000000,,,,,,,,,,,,,,,,
1741764854.040642,1741764854.213380,84.000000,0.000000,4289.743652,4284.743652,4326.538574,4282.051270,4280.000000,4269.743652,4289.743652,4283.846191,4248.974121,4241.794922,4412.179688,4463.077148,4357.179688,4447.692383,6578.000000,3.000000,73.000000,,,,0.000000,4.000000,4.000000,4.000000,4.000000,4.000000,4.000000,4.000000,4.000000,4.000000,4.000000,4.000000,4.000000,4.000000,4.000000,100.000000,,,,,,,,,,,,,,,,
1741764854.048450,1741764854.221088,85.000000,0.000000,4286.922852,4283.589844,4317.179688,4272.820313,4275.384766,4270.256348,4293.333496,4279.871582,4232.692383,4241.410156,4444.230957,4452.563965,4346.538574,4446.025879,6975.000000,3.000000,73.000000,,,,0.000000,4.000000,4.000000,4.000000,4.000000,4.000000,4.000000,4.000000,4.000000,4.000000,4.000000,4.000000,4.000000,4.000000,4.000000,100.000000,,,,,,,,,,,,,,,,
1741764854.056258,1741764854.228897,86.000000,0.000000,4270.641113,4270.512695,4305.769043,4263.461426,4271.794922,4269.487305,4285.512695,4275.000000,4223.461426,4237.179688,4438.846191,4444.230957,4340.897461,4428.077148,5733.000000,3.000000,73.000000,,,,0.000000,4.000000,4.000000,4.000000,4.000000,4.000000,4.000000,4.000000,4.000000,4.000000,4.000000,4.000000,4.000000,4.000000,4.000000,100.000000,,,,,,,,,,,,,,,,
1741764854.064066,1741764854.236605,87.000000,0.000000,4263.846191,4269.230957,4308.974121,4263.717773,4273.589844,4269.487305,4280.897461,4276.538574,4235.769043,4233.974121,4406.538574,4443.846191,4338.974121,4417.051270,6456.000000,3.000000,73.000000,,,,0.000000,4.000000,4.000000,4.000000,4.000000,4.000000,4.000000,4.000000,4.000000,4.000000,4.000000,4.000000,4.000000,4.000000,4.000000,100.000000,,,,,,,,,,,,,,,,
1741764854.071874,1741764854.244413,88.000000,0.000000,4270.512695,4279.230957,4313.846191,4268.333496,4280.128418,4275.000000,4293.077148,4285.897461,4246.410156,4243.846191,4413.974121,4448.077148,4343.846191,4432.563965,6578.000000,3.000000,73.000000,,,,0.000000,4.000000,4.000000,4.000000,4.000000,4.000000,4.000000,4.000000,4.000000,4.000000,4.000000,4.000000,4.000000,4.000000,4.000000,100.000000,,,,,,,,,,,,,,,,
1741764854.079682,1741764854.252121,89.000000,0.000000,4272.179688,4280.256348,4309.871582,4271.794922,4286.282227,4275.641113,4296.794922,4291.922852,4248.846191,4255.512695,4427.820313,4452.051270,4353.077148,4440.641113,6975.000000,3.000000,73.000000,,,,0.000000,4.000000,4.000000,4.000000,4.000000,4.000000,4.000000,4.000000,4.000000,4.000000,4.000000,4.000000,4.000000,4.000000,4.000000,100.000000,,,,,,,,,,,,,,,,
1741764854.087490,1741764854.259929,90.000000,0.000000,4272.307617,4276.922852,4312.563965,4277.436035,4288.589844,4273.974121,4297.179688,4299.102539,4265.897461,4256.922852,4421.025879,4453.333496,4352.051270,4430.641113,5733.000000,3.000000,73.000000,,,,0.000000,4.000000,4.000000,4.000000,4.000000,4.000000,4.000000,4.000000,4.000000,4.000000,4.000000,4.000000,4.000000,4.000000,4.000000,100.000000,,,,,,,,,,,,,,,,
1741764854.095298,1741764854.267638,91.000000,0.000000,4283.077148,4284.487305,4323.717773,4287.436035,4290.897461,4278.205078,4306.666504,4308.974121,4280.769043,4257.179688,4419.743652,4458.333496,4358.846191,4434.743652,6456.000000,3.000000,73.000000,,,,0.000000,4.000000,4.000000,4.000000,4.000000,4.000000,4.000000,4.000000,4.000000,4.000000,4.000000,4.000000,4.000000,4.000000,4.000000,100.000000,,,,,,,,,,,,,,,,
1741764854.103107,1741764854.275546,92.000000,0.000000,4289.615234,4290.256348,4330.000000,4292.051270,4294.871582,4279.487305,4311.666504,4302.436035,4266.666504,4255.384766,4442.436035,4468.205078,4370.128418,4444.615234,6578.000000,3.000000,73.000000,,,,0.000000,4.000000,4.000000,4.000000,4.000000,4.000000,4.000000,4.000000,4.000000,4.000000,4.000000,4.000000,4.000000,4.000000,4.000000,100.000000,,,,,,,,,,,,,,,,
1741764854.110915,1741764854.283354,93.000000,0.000000,4288.589844,4290.769043,4332.179688,4292.051270,4299.871582,4275.256348,4305.256348,4295.512695,4255.512695,4253.974121,4450.128418,4473.205078,4368.846191,4447.436035,6975.000000,3.000000,73.000000,,,,0.000000,4.000000,4.000000,4.000000,4.000000,4.000000,4.000000,4.000000,4.000000,4.000000,4.000000,4.000000,4.000000,4.000000,4.000000,100.000000,,,,,,,,,,,,,,,,
1741764854.118723,1741764854.291262,94.000000,0.000000,4291.794922,4296.282227,4337.179688,4297.179688,4305.000000,4278.333496,4306.794922,4305.769043,4265.897461,4259.615234,4433.205078,4471.666504,4366.025879,4446.666504,5733.000000,3.000000,73.000000,,,,0.000000,4.000000,4.000000,4.000000,4.000000,4.000000,4.000000,4.000000,4.000000,4.000000,4.000000,4.000000,4.000000,4.000000,4.000000,100.000000,,,,,,,,,,,,,,,,
1741764854.126531,1741764854.299070,95.000000,0.000000,4292.436035,4291.410156,4330.769043,4290.384766,4297.692383,4275.897461,4308.974121,4298.205078,4259.871582,4263.461426,4440.000000,4463.717773,4368.846191,4435.512695,6456.000000,3.000000,73.000000,,,,0.000000,4.000000,4.000000,4.000000,4.000000,4.000000,4.000000,4.000000,4.000000,4.000000,4.000000,4.000000,4.000000,4.000000,4.000000,100.000000,,,,,,,,,,,,,,,,
1741764854.134339,1741764854.306978,96.000000,0.000000,4285.769043,4277.563965,4313.974121,4262.820313,4284.871582,4262.563965,4291.282227,4276.025879,4240.128418,4256.666504,4460.128418,4451.153809,4364.230957,4429.743652,6578.000000,3.000000,73.000000,,,,0.000000,4.000000,4.000000,4.000000,4.000000,4.000000,4.000000,4.000000,4.000000,4.000000,4.000000,4.000000,4.000000,4.000000,4.000000,100.000000,,,,,,,,,,,,,,,,
1741764854.142147,1741764854.314786,97.000000,0.000000,4278.717773,4270.000000,4310.128418,4231.794922,4277.179688,4258.846191,4286.153809,4276.794922,4243.077148,4247.820313,4446.025879,4442.436035,4351.025879,4429.871582,6975.000000,3.000000,73.000000,,,,0.000000,4.000000,4.000000,4.000000,4.000000,4.000000,4.000000,4.000000,4.000000,4.000000,4.000000,4.000000,4.000000,4.000000,4.000000,100.000000,,,,,,,,,,,,,,,,
1741764854.149955,1741764854.322695,98.000000,0.000000,4266.410156,4264.358887,4308.589844,4210.769043,4264.102539,4264.743652,4292.179688,4280.000000,4246.538574,4239.358887,4393.717773,4442.051270,4338.717773,4409.358887,5733.000000,3.000000,73.000000,,,,0.000000,4.000000,4.000000,4.000000,4.000000,4.000000,4.000000,4.000000,4.000000,4.000000,4.000000,4.000000,4.000000,4.000000,4.000000,100.000000,,,,,,,,,,,,,,,,
1741764854.157763,1741764854.330503,99.000000,0.000000,4254.102539,4253.974121,4296.922852,4201.410156,4253.974121,4262.436035,4284.615234,4271.922852,4240.256348,4232.051270,4378.461426,4437.820313,4332.179688,4388.717773,6456.000000,3.000000,73.000000,,,,0.000000,4.000000,4.000000,4.000000,4.000000,4.000000,4.000000,4.000000,4.000000,4.000000,4.000000,4.000000,4.000000,4.000000,4.000000,100.000000,,,,,,,,,,,,,,,,
1741764854.165571,1741764854.338411,100.000000,0.000000,4258.717773,4251.025879,4294.358887,4201.282227,4257.179688,4264.358887,4286.025879,4276.666504,4243.974121,4234.102539,4417.820313,4425.897461,4336.538574,4396.025879,6578.000000,3.000000,73.000000,,,,0.000000,4.000000,4.000000,4.000000,4.000000,4.000000,4.000000,4.000000,4.000000,4.000000,4.000000,4.000000,4.000000,4.000000,4.000000,100.000000,,,,,,,,,,,,,,,,
1741764854.173380,1741764854.346219,101.000000,0.000000,4265.641113,4253.974121,4298.205078,4200.128418,4256.153809,4272.692383,4284.230957,4272.179688,4233.077148,4230.256348,4428.077148,4415.641113,4333.077148,4400.256348,6975.000000,3.000000,73.000000,,,,0.000000,4.000000,4.000000,4.000000,4.000000,4.000000,4.000000,4.000000,4.000000,4.000000,4.000000,4.000000,4.000000,4.000000,4.000000,100.000000,,,,,,,,,,,,,,,,
1741764854.181188,1741764854.354127,102.000000,0.000000,4264.487305,4254.871582,4301.410156,4199.487305,4245.384766,4276.410156,4277.692383,4261.153809,4224.230957,4223.205078,4408.846191,4417.051270,4325.897461,4395.000000,5733.000000,3.000000,73.000000,,,,0.000000,4.000000,4.000000,4.000000,4.000000,4.000000,4.000000,4.000000,4.000000,4.000000,4.000000,4.000000,4.000000,4.000000,4.000000,100.000000,,,,,,,,,,,,,,,,
1741764854.188996,1741764854.361935,103.000000,0.000000,4270.512695,4261.666504,4308.077148,4210.641113,4250.641113,4283.717773,4283.461426,4267.820313,4236.153809,4228.974121,4407.051270,4430.512695,4332.436035,4402.307617,6456.000000,3.000000,73.000000,,,,0.000000,4.000000,4.000000,4.000000,4.000000,4.000000,4.000000,4.000000,4.000000,4.000000,4.000000,4.000000,4.000000,4.000000,4.000000,100.000000,,,,,,,,,,,,,,,,
1741764854.196804,1741764854.369644,104.000000,0.000000,4271.025879,4260.384766,4302.436035,4216.153809,4261.025879,4284.743652,4277.692383,4263.589844,4226.410156,4226.666504,4411.153809,4426.538574,4333.974121,4400.256348,6578.000000,3.000000,73.000000,,,,0.000000,4.000000,4.000000,4.000000,4.000000,4.000000,4.000000,4.000000,4.000000,4.000000,4.000000,4.000000,4.000000,4.000000,4.000000,100.000000,,,,,,,,,,,,,,,,
1741764854.204612,1741764854.377452,105.000000,0.000000,4260.256348,4249.871582,4291.153809,4219.615234,4251.538574,4281.922852,4272.051270,4251.538574,4212.179688,4218.974121,4403.589844,4417.307617,4326.922852,4393.077148,6975.000000,3.000000,73.000000,,,,0.000000,4.000000,4.000000,4.000000,4.000000,4.000000,4.000000,4.000000,4.000000,4.000000,4.000000,4.000000,4.000000,4.000000,4.000000,100.000000,,,,,,,,,,,,,,,,
1741764854.212420,1741764854.385160,106.000000,0.000000,4262.051270,4252.692383,4300.512695,4240.256348,4248.846191,4290.000000,4282.051270,4260.256348,4228.333496,4230.128418,4424.871582,4428.077148,4335.000000,4407.563965,5733.000000,3.000000,73.000000,,,,0.000000,4.000000,4.000000,4.000000,4.000000,4.000000,4.000000,4.000000,4.000000,4.000000,4.000000,4.000000,4.000000,4.000000,4.000000,100.000000,,,,,,,,,,,,,,,,
1741764854.220228,1741764854.392968,107.000000,0.000000,4272.179688,4264.230957,4310.512695,4258.333496,4262.563965,4295.897461,4286.025879,4267.051270,4236.922852,4244.102539,4424.230957,4430.512695,4346.538574,4418.974121,6456.000000,3.000000,73.000000,,,,0.000000,4.000000,4.000000,4.000000,4.000000,4.000000,4.000000,4.000000,4.000000,4.000000,4.000000,4.000000,4.000000,4.000000,4.000000,100.000000,,,,,,,,,,,,,,,,
1741764854.228036,1741764854.400677,108.000000,0.000000,4275.000000,4270.000000,4309.487305,4268.589844,4272.563965,4292.179688,4283.077148,4268.205078,4237.948730,4242.179688,4394.102539,4427.179688,4345.769043,4415.384766,6578.000000,3.000000,73.000000,,,,0.000000,4.000000,4.000000,4.000000,4.000000,4.000000,4.000000,4.000000,4.000000,4.000000,4.000000,4.000000,4.000000,4.000000,4.000000,100.000000,,,,,,,,,,,,,,,,
1741764854.235844,1741764854.408585,109.000000,0.000000,4271.410156,4270.769043,4309.230957,4285.512695,4275.897461,4287.692383,4285.128418,4283.077148,4258.077148,4244.615234,4427.307617,4442.436035,4347.563965,4417.948730,6975.000000,3.000000,73.000000,,,,0.000000,4.000000,4.000000,4.000000,4.000000,4.000000,4.000000,4.000000,4.000000,4.000000,4.000000,4.000000,4.000000,4.000000,4.000000,100.000000,,,,,,,,,,,,,,,,
1741764854.243652,1741764854.416393,110.000000,0.000000,4260.641113,4264.615234,4298.205078,4289.871582,4269.230957,4283.077148,4281.794922,4275.128418,4247.436035,4241.538574,4455.769043,4428.846191,4341.410156,4408.589844,5733.000000,3.000000,73.000000,,,,0.000000,4.000000,4.000000,4.000000,4.000000,4.000000,4.000000,4.000000,4.000000,4.000000,4.000000,4.000000,4.000000,4.000000,4.000000,100.000000,,,,,,,,,,,,,,,,
1741764854.251460,1741764854.424301,111.000000,0.000000,4259.358887,4264.230957,4289.743652,4286.410156,4262.179688,4275.256348,4276.410156,4252.436035,4221.538574,4235.512695,4419.230957,4397.563965,4336.410156,4399.743652,6456.000000,3.000000,73.000000,,,,0.000000,4.000000,4.000000,4.000000,4.000000,4.000000,4.000000,4.000000,4.000000,4.000000,4.000000,4.000000,4.000000,4.000000,4.000000,100.000000,,,,,,,,,,,,,,,,
1741764854.259269,1741764854.432109,112.000000,0.000000,4270.384766,4270.384766,4302.307617,4298.589844,4269.615234,4277.307617,4290.769043,4268.974121,4244.615234,4250.641113,4404.358887,4424.615234,4344.871582,4416.025879,6578.000000,3.000000,73.000000,,,,0.000000,4.000000,4.000000,4.000000,4.000000,4.000000,4.000000,4.000000,4.000000,4.000000,4.000000,4.000000,4.000000,4.000000,4.000000,100.000000,1.000000,25.000000,4.000000,4.000000,1.000000,1.000000,3.000000,4.000000,4.000000,4.000000,4.000000,3.000000,1.000000,3.000000,4.000000,4.000000
1741764854.267077,1741764854.439918,113.000000,0.000000,4265.641113,4257.051270,4305.512695,4296.922852,4268.717773,4275.897461,4297.307617,4281.410156,4256.794922,4257.051270,4434.230957,4452.179688,4336.794922,4418.461426,6975.000000,3.000000,73.000000,,,,0.000000,4.000000,4.000000,4.000000,4.000000,4.000000,4.000000,4.000000,4.000000,4.000000,4.000000,4.000000,4.000000,4.000000,4.000000,100.000000,,,,,,,,,,,,,,,,
1741764854.274885,1741764854.447626,114.000000,0.000000,4253.333496,4243.333496,4288.846191,4276.410156,4249.230957,4259.615234,4270.641113,4255.384766,4224.230957,4238.205078,4436.794922,4419.358887,4327.692383,4402.436035,5733.000000,3.000000,73.000000,,,,0.000000,4.000000,4.000000,4.000000,4.000000,4.000000,4.000000,4.000000,4.000000,4.000000,4.000000,4.000000,4.000000,4.000000,4.000000,100.000000,,,,,,,,,,,,,,,,
1741764854.282693,1741764854.455434,115.000000,0.000000,4250.000000,4242.051270,4278.974121,4260.128418,4233.974121,4250.769043,4254.615234,4234.102539,4203.717773,4222.563965,4394.102539,4390.128418,4329.871582,4392.820313,6456.000000,3.000000,73.000000,,,,0.000000,4.000000,4.000000,4.000000,4.000000,4.000000,4.000000,4.000000,4.000000,4.000000,4.000000,4.000000,4.000000,4.000000,4.000000,100.000000,,,,,,,,,,,,,,,,
1741764854.290501,1741764854.463142,116.000000,0.000000,4247.307617,4237.436035,4280.641113,4243.333496,4232.563965,4258.461426,4264.615234,4234.230957,4204.358887,4219.102539,4381.153809,4392.307617,4323.717773,4386.794922,6578.000000,3.000000,73.000000,,,,0.000000,4.000000,4.000000,4.000000,4.000000,4.000000,4.000000,4.000000,4.000000,4.000000,4.000000,4.000000,4.000000,4.000000,4.000000,100.000000,,,,,,,,,,,,,,,,
1741764854.298309,1741764854.470950,117.000000,0.000000,4247.692383,4233.461426,4281.794922,4227.563965,4232.307617,4268.333496,4270.000000,4237.820313,4202.948730,4216.025879,4397.307617,4398.205078,4316.025879,4378.974121,6975.000000,3.000000,73.000000,,,,0.000000,4.000000,4.000000,4.000000,4.000000,4.000000,4.000000,4.000000,4.000000,4.000000,4.000000,4.000000,4.000000,4.000000,4.000000,100.000000,,,,,,,,,,,,,,,,
1741764854.306117,1741764854.478658,118.000000,0.000000,4242.051270,4225.769043,4275.769043,4208.589844,4223.205078,4264.102539,4260.000000,4230.384766,4197.307617,4200.256348,4378.589844,4388.846191,4303.974121,4365.256348,5733.000000,3.000000,73.000000,,,,0.000000,4.000000,4.000000,4.000000,4.000000,4.000000,4.000000,4.000000,4.000000,4.000000,4.000000,4.000000,4.000000,4.000000,4.000000,100.000000,,,,,,,,,,,,,,,,
1741764854.313925,1741764854.486566,119.000000,0.000000,4221.666504,4207.179688,4259.230957,4181.922852,4210.897461,4251.025879,4242.563965,4212.820313,4188.974121,4188.589844,4359.615234,4366.282227,4278.846191,4347.692383,6456.000000,3.000000,73.000000,,,,0.000000,4.000000,4.000000,4.000000,4.000000,4.000000,4.000000,4.000000,4.000000,4.000000,4.000000,4.000000,4.000000,4.000000,4.000000,100.000000,,,,,,,,,,,,,,,,
1741764854.321734,1741764854.494374,120.000000,0.000000,4216.025879,4197.820313,4249.487305,4163.333496,4201.282227,4250.512695,4240.769043,4201.794922,4177.436035,4189.230957,4362.948730,4357.948730,4271.025879,4340.641113,6578.000000,3.000000,73.000000,,,,0.000000,4.000000,4.000000,4.000000,4.000000,4.000000,4.000000,4.000000,4.000000,4.000000,4.000000,4.000000,4.000000,4.000000,4.000000,100.000000,,,,,,,,,,,,,,,,
1741764854.329542,1741764854.502282,121.000000,0.000000,4236.794922,4211.025879,4262.563965,4168.333496,4199.871582,4261.794922,4254.230957,4212.563965,4183.077148,4189.487305,4338.846191,4375.512695,4288.717773,4353.077148,6975.000000,3.000000,73.000000,,,,0.000000,4.000000,4.000000,4.000000,4.000000,4.000000,4.000000,4.000000,4.000000,4.000000,4.000000,4.000000,4.000000,4.000000,4.000000,100.000000,,,,,,,,,,,,,,,,
1741764854.337350,1741764854.510090,122.000000,0.000000,4253.589844,4223.846191,4279.615234,4180.000000,4209.743652,4264.871582,4259.871582,4229.358887,4200.128418,4195.256348,4345.128418,4392.307617,4298.077148,4370.000000,5733.000000,3.000000,73.000000,,,,0.000000,4.000000,4.000000,4.000000,4.000000,4.000000,4.000000,4.000000,4.000000,4.000000,4.000000,4.000000,4.000000,4.000000,4.000000,100.000000,,,,,,,,,,,,,,,,
1741764854.345158,1741764854.517999,123.000000,0.000000,4250.769043,4223.846191,4283.333496,4178.974121,4218.974121,4264.230957,4261.025879,4233.589844,4202.179688,4209.358887,4413.077148,4395.897461,4301.922852,4371.153809,6456.000000,3.000000,73.000000,,,,0.000000,4.000000,4.000000,4.000000,4.000000,4.000000,4.000000,4.000000,4.000000,4.000000,4.000000,4.000000,4.000000,4.000000,4.000000,100.000000,,,,,,,,,,,,,,,,
1741764854.352966,1741764854.525807,124.000000,0.000000,4248.846191,4223.205078,4280.512695,4175.128418,4220.000000,4266.922852,4258.589844,4230.897461,4200.000000,4213.717773,4425.769043,4396.538574,4309.615234,4364.615234,6578.000000,3.000000,73.000000,,,,0.000000,4.000000,4.000000,4.000000,4.000000,4.000000,4.000000,4.000000,4.000000,4.000000,4.000000,4.000000,4.000000,4.000000,4.000000,100.000000,,,,,,,,,,,,,,,,
1741764854.360774,1741764854.533715,125.000000,0.000000,4255.512695,4223.589844,4281.922852,4175.512695,4217.051270,4269.230957,4258.589844,4227.692383,4197.179688,4206.410156,4369.487305,4398.974121,4302.948730,4369.102539,6975.000000,3.000000,73.000000,,,,0.000000,4.000000,4.000000,4.000000,4.000000,4.000000,4.000000,4.000000,4.000000,4.000000,4.000000,4.000000,4.000000,4.000000,4.000000,100.000000,,,,,,,,,,,,,,,,
1741764854.368582,1741764854.541523,126.000000,0.000000,4260.897461,4222.692383,4290.897461,4174.358887,4217.179688,4276.153809,4265.897461,4232.692383,4203.461426,4209.615234,4368.333496,4403.205078,4298.846191,4377.436035,5733.000000,3.000000,73.000000,,,,0.000000,4.000000,4.000000,4.000000,4.000000,4.000000,4.000000,4.000000,4.000000,4.000000,4.000000,4.000000,4.000000,4.000000,4.000000,100.000000,,,,,,,,,,,,,,,,
1741764854.376390,1741764854.549231,127.000000,0.000000,4261.025879,4220.769043,4295.384766,4168.974121,4219.615234,4281.794922,4264.230957,4235.128418,4208.717773,4211.282227,4400.512695,4406.410156,4307.307617,4382.948730,73.000000,3.000000,73.000000,,,,0.000000,4.000000,4.000000,4.000000,4.000000,4.000000,4.000000,4.000000,4.000000,4.000000,4.000000,4.000000,4.000000,4.000000,4.000000,100.000000,,,,,,,,,,,,,,,,
1741764854.384198,1741764854.557040,0.000000,0.000000,4257.051270,4217.820313,4287.307617,4161.410156,4214.871582,4278.205078,4255.769043,4220.128418,4187.563965,4192.820313,4383.461426,4404.615234,4301.538574,4385.769043,5571.000000,3.000000,73.000000,,,,0.000000,4.000000,4.000000,4.000000,4.000000,4.000000,4.000000,4.000000,4.000000,4.000000,4.000000,4.000000,4.000000,4.000000,4.000000,100.000000,,,,,,,,,,,,,,,,
1741764854.392007,1741764854.564748,1.000000,0.000000,4252.051270,4217.179688,4278.846191,4155.384766,4208.589844,4270.384766,4250.897461,4210.769043,4175.769043,4187.563965,4373.717773,4398.846191,4290.128418,4379.615234,5247.000000,3.000000,73.000000,,,,0.000000,4.000000,4.000000,4.000000,4.000000,4.000000,4.000000,4.000000,4.000000,4.000000,4.000000,4.000000,4.000000,4.000000,4.000000,100.000000,,,,,,,,,,,,,,,,
1741764854.399814,1741764854.572556,2.000000,0.000000,4251.922852,4214.615234,4278.846191,4151.794922,4211.153809,4271.922852,4254.743652,4216.922852,4192.179688,4201.153809,4385.897461,4389.615234,4296.794922,4372.051270,5546.000000,3.000000,73.000000,,,,0.000000,4.000000,4.000000,4.000000,4.000000,4.000000,4.000000,4.000000,4.000000,4.000000,4.000000,4.000000,4.000000,4.000000,4.000000,100.000000,,,,,,,,,,,,,,,,
1741764854.407623,1741764854.580264,3.000000,0.000000,4254.487305,4208.717773,4281.666504,4149.102539,4213.461426,4278.717773,4255.384766,4218.846191,4191.922852,4198.589844,4364.230957,4391.410156,4299.358887,4373.461426,5531.000000,3.000000,73.000000,,,,0.000000,4.000000,4.000000,4.000000,4.000000,4.000000,4.000000,4.000000,4.000000,4.000000,4.000000,4.000000,4.000000,4.000000,4.000000,100.000000,,,,,,,,,,,,,,,,
1741764854.415431,1741764854.588073,4.000000,0.000000,4254.743652,4216.410156,4281.410156,4145.000000,4214.230957,4279.743652,4249.743652,4221.922852,4186.538574,4193.974121,4366.794922,4402.692383,4294.102539,4380.512695,5577.000000,3.000000,73.000000,,,,0.000000,4.000000,4.000000,4.000000,4.000000,4.000000,4.000000,4.000000,4.000000,4.000000,4.000000,4.000000,4.000000,4.000000,4.000000,100.000000,,,,,,,,,,,,,,,,
1741764854.423239,1741764854.595781,5.000000,0.000000,4253.974121,4228.846191,4278.846191,4145.256348,4219.102539,4280.128418,4256.282227,4227.563965,4197.307617,4203.077148,4395.769043,4399.230957,4303.205078,4382.692383,3645.000000,3.000000,73.000000,,,,0.000000,4.000000,4.000000,4.000000,4.000000,4.000000,4.000000,4.000000,4.000000,4.000000,4.000000,4.000000,4.000000,4.000000,4.000000,100.000000,,,,,,,,,,,,,,,,
1741764854.431047,1741764854.603589,6.000000,0.000000,4261.538574,4230.641113,4282.948730,4150.641113,4224.487305,4281.153809,4261.794922,4225.897461,4201.282227,4206.666504,4374.871582,4406.538574,4315.769043,4386.025879,3351.000000,3.000000,73.000000,,,,0.000000,4.000000,4.000000,4.000000,4.000000,4.000000,4.000000,4.000000,4.000000,4.000000,4.000000,4.000000,4.000000,4.000000,4.000000,100.000000,,,,,,,,,,,,,,,,
1741764854.438855,1741764854.611297,7.000000,0.000000,4273.461426,4231.025879,4296.153809,4152.820313,4224.743652,4286.666504,4266.153809,4237.820313,4218.589844,4218.974121,4380.641113,4436.538574,4318.461426,4406.538574,5183.000000,3.000000,73.000000,,,,0.000000,4.000000,4.000000,4.000000,4.000000,4.000000,4.000000,4.000000,4.000000,4.000000,4.000000,4.000000,4.000000,4.000000,4.000000,100.000000,,,,,,,,,,,,,,,,
1741764854.446663,1741764854.619206,8.000000,0.000000,4268.333496,4220.641113,4292.563965,4145.512695,4217.179688,4286.794922,4267.948730,4241.922852,4222.948730,4230.769043,4432.948730,4421.025879,4315.512695,4413.717773,5397.000000,3.000000,73.000000,,,,0.000000,4.000000,4.000000,4.000000,4.000000,4.000000,4.000000,4.000000,4.000000,4.000000,4.000000,4.000000,4.000000,4.000000,4.000000,100.000000,,,,,,,,,,,,,,,,
1741764854.454471,1741764854.627014,9.000000,0.000000,4256.666504,4209.487305,4272.563965,4137.436035,4212.436035,4276.794922,4254.871582,4217.692383,4181.922852,4207.948730,4407.948730,4377.051270,4310.512695,4393.077148,4969.000000,3.000000,73.000000,,,,0.000000,4.000000,4.000000,4.000000,4.000000,4.000000,4.000000,4.000000,4.000000,4.000000,4.000000,4.000000,4.000000,4.000000,4.000000,100.000000,,,,,,,,,,,,,,,,
1741764854.462279,1741764854.634822,10.000000,0.000000,4260.384766,4218.589844,4268.846191,4140.512695,4215.256348,4277.179688,4254.743652,4210.641113,4162.820313,4180.128418,4354.871582,4378.974121,4298.717773,4383.846191,5764.000000,3.000000,73.000000,,,,0.000000,4.000000,4.000000,4.000000,4.000000,4.000000,4.000000,4.000000,4.000000,4.000000,4.000000,4.000000,4.000000,4.000000,4.000000,100.000000,,,,,,,,,,,,,,,,
1741764854.470087,1741764854.642530,11.000000,0.000000,4271.282227,4225.897461,4279.102539,4145.256348,4220.000000,4280.256348,4257.820313,4220.256348,4181.666504,4187.820313,4379.102539,4401.025879,4293.333496,4402.179688,6461.000000,3.000000,73.000000,,,,0.000000,4.000000,4.000000,4.000000,4.000000,4.000000,4.000000,4.000000,4.000000,4.000000,4.000000,4.000000,4.000000,4.000000,4.000000,100.000000,,,,,,,,,,,,,,,,
1741764854.477896,1741764854.650338,12.000000,0.000000,4281.794922,4224.102539,4287.820313,4150.641113,4226.153809,4273.205078,4246.153809,4218.333496,4190.128418,4207.307617,4398.333496,4403.974121,4306.410156,4415.384766,6576.000000,3.000000,73.000000,,,,0.000000,4.000000,4.000000,4.000000,4.000000,4.000000,4.000000,4.000000,4.000000,4.000000,4.000000,4.000000,4.000000,4.000000,4.000000,100.000000,,,,,,,,,,,,,,,,
1741764854.485704,1741764854.658047,13.000000,0.000000,4296.282227,4238.077148,4297.948730,4162.820313,4230.769043,4274.487305,4252.820313,4224.230957,4195.897461,4214.102539,4386.025879,4415.384766,4320.256348,4413.717773,6992.000000,3.000000,73.000000,,,,0.000000,4.000000,4.000000,4.000000,4.000000,4.000000,4.000000,4.000000,4.000000,4.000000,4.000000,4.000000,4.000000,4.000000,4.000000,100.000000,,,,,,,,,,,,,,,,
1741764854.493512,1741764854.665855,14.000000,0.000000,4312.051270,4256.025879,4307.436035,4178.077148,4232.436035,4280.128418,4265.897461,4238.461426,4211.282227,4220.000000,4406.282227,4435.000000,4329.230957,4426.666504,5764.000000,3.000000,73.000000,,,,0.000000,4.000000,4.000000,4.000000,4.000000,4.000000,4.000000,4.000000,4.000000,4.000000,4.000000,4.000000,4.000000,4.000000,4.000000,100.000000,,,,,,,,,,,,,,,,
1741764854.501320,1741764854.673563,15.000000,0.000000,4319.615234,4258.589844,4312.307617,4188.974121,4233.846191,4279.487305,4264.871582,4238.717773,4213.974121,4222.179688,4414.102539,4434.615234,4333.846191,4442.563965,6461.000000,3.000000,73.000000,,,,0.000000,4.000000,4.000000,4.000000,4.000000,4.000000,4.000000,4.000000,4.000000,4.000000,4.000000,4.000000,4.000000,4.000000,4.000000,100.000000,,,,,,,,,,,,,,,,
1741764854.509128,1741764854.681371,16.000000,0.000000,4321.666504,4263.205078,4317.307617,4193.974121,4237.948730,4282.307617,4267.948730,4245.641113,4223.717773,4225.128418,4403.717773,4436.794922,4325.512695,4429.358887,0.000000,3.000000,73.000000,,,,0.000000,4.000000,4.000000,4.000000,4.000000,4.000000,4.000000,4.000000,4.000000,4.000000,4.000000,4.000000,4.000000,4.000000,4.000000,100.000000,,,,,,,,,,,,,,,,
1741764854.516936,1741764854.689079,17.000000,0.000000,4318.077148,4265.384766,4315.641113,4198.589844,4239.615234,4284.102539,4272.179688,4252.436035,4236.025879,4226.922852,4400.384766,4437.307617,4306.025879,4399.487305,0.000000,3.000000,73.000000,,,,0.000000,4.000000,4.000000,4.000000,4.000000,4.000000,4.000000,4.000000,4.000000,4.000000,4.000000,4.000000,4.000000,4.000000,4.000000,100.000000,,,,,,,,,,,,,,,,
1741764854.524744,1741764854.696987,18.000000,0.000000,4306.282227,4251.410156,4302.563965,4197.436035,4241.282227,4284.871582,4266.922852,4237.436035,4213.846191,4210.512695,4388.974121,4413.461426,4297.820313,4389.487305,0.000000,3.000000,73.000000,,,,0.000000,4.000000,4.000000,4.000000,4.000000,4.000000,4.000000,4.000000,4.000000,4.000000,4.000000,4.000000,4.000000,4.000000,4.000000,100.000000,,,,,,,,,,,,,,,,
1741764854.532552,1741764854.704795,19.000000,0.000000,4290.384766,4233.589844,4293.077148,4188.205078,4244.358887,4286.538574,4258.205078,4226.538574,4185.512695,4190.512695,4380.384766,4392.692383,4302.307617,4396.538574,0.000000,3.000000,73.000000,,,,0.000000,4.000000,4.000000,4.000000,4.000000,4.000000,4.000000,4.000000,4.000000,4.000000,4.000000,4.000000,4.000000,4.000000,4.000000,100.000000,,,,,,,,,,,,,,,,
1741764854.540360,1741764854.712703,20.000000,0.000000,4278.589844,4227.051270,4286.410156,4180.512695,4236.922852,4285.128418,4262.051270,4228.205078,4183.461426,4187.692383,4384.871582,4393.717773,4292.948730,4384.487305,0.000000,3.000000,73.000000,,,,0.000000,4.000000,4.000000,4.000000,4.000000,4.000000,4.000000,4.000000,4.000000,4.000000,4.000000,4.000000,4.000000,4.000000,4.000000,100.000000,,,,,,,,,,,,,,,,
1741764854.548169,1741764854.720511,21.000000,0.000000,4280.256348,4236.025879,4288.077148,4182.692383,4232.820313,4283.461426,4269.358887,4231.153809,4196.025879,4199.615234,4375.000000,4406.282227,4284.487305,4378.205078,0.000000,3.000000,73.000000,,,,0.000000,4.000000,4.000000,4.000000,4.000000,4.000000,4.000000,4.000000,4.000000,4.000000,4.000000,4.000000,4.000000,4.000000,4.000000,100.000000,,,,,,,,,,,,,,,,
1741764854.555977,1741764854.728419,22.000000,0.000000,4293.974121,4245.512695,4305.641113,4194.743652,4244.615234,4283.717773,4267.563965,4238.717773,4205.512695,4208.461426,4373.077148,4420.512695,4307.820313,4399.743652,0.000000,3.000000,73.000000,,,,0.000000,4.000000,4.000000,4.000000,4.000000,4.000000,4.000000,4.000000,4.000000,4.000000,4.000000,4.000000,4.000000,4.000000,4.000000,100.000000,,,,,,,,,,,,,,,,
1741764854.563785,1741764854.736228,23.000000,0.000000,4310.256348,4252.948730,4320.769043,4207.948730,4247.948730,4283.717773,4271.025879,4246.410156,4208.077148,4209.615234,4396.538574,4438.589844,4328.461426,4406.538574,0.000000,3.000000,73.000000,,,,0.000000,4.000000,4.000000,4.000000,4.000000,4.000000,4.000000,4.000000,4.000000,4.000000,4.000000,4.000000,4.000000,4.000000,4.000000,100.000000,,,,,,,,,,,,,,,,
1741764854.571593,1741764854.744136,24.000000,0.000000,4319.230957,4269.230957,4320.897461,4214.358887,4245.512695,4281.922852,4271.538574,4243.461426,4212.179688,4212.307617,4403.333496,4447.948730,4317.948730,4401.538574,0.000000,3.000000,73.000000,,,,0.000000,4.000000,4.000000,4.000000,4.000000,4.000000,4.000000,4.000000,4.000000,4.000000,4.000000,4.000000,4.000000,4.000000,4.000000,100.000000,,,,,,,,,,,,,,,,
1741764854.579401,1741764854.751944,25.000000,0.000000,4311.153809,4269.615234,4314.743652,4206.410156,4252.179688,4280.512695,4264.102539,4236.410156,4215.000000,4217.692383,4395.641113,4432.563965,4311.282227,4406.794922,0.000000,3.000000,73.000000,,,,0.000000,4.000000,4.000000,4.000000,4.000000,4.000000,4.000000,4.000000,4.000000,4.000000,4.000000,4.000000,4.000000,4.000000,4.000000,100.000000,,,,,,,,,,,,,,,,
1741764854.587209,1741764854.759752,26.000000,0.000000,4300.384766,4249.358887,4311.922852,4205.000000,4256.153809,4277.692383,4262.051270,4232.051270,4209.743652,4222.820313,4402.948730,4414.487305,4324.615234,4402.179688,0.000000,3.000000,73.000000,,,,0.000000,4.000000,4.000000,4.000000,4.000000,4.000000,4.000000,4.000000,4.000000,4.000000,4.000000,4.000000,4.000000,4.000000,4.000000,100.000000,,,,,,,,,,,,,,,,
1741764854.595017,1741764854.767560,27.000000,0.000000,4308.333496,4250.897461,4313.077148,4218.846191,4249.487305,4274.487305,4262.307617,4226.666504,4202.563965,4216.922852,4400.641113,4413.846191,4323.974121,4386.922852,0.000000,3.000000,73.000000,,,,0.000000,4.000000,4.000000,4.000000,4.000000,4.000000,4.000000,4.000000,4.000000,4.000000,4.000000,4.000000,4.000000,4.000000,4.000000,100.000000,,,,,,,,,,,,,,,,
1741764854.602825,1741764854.775269,28.000000,0.000000,4308.846191,4260.000000,4317.436035,4216.282227,4247.179688,4276.025879,4266.538574,4233.974121,4208.974121,4206.538574,4379.871582,4422.563965,4307.179688,4384.358887,0.000000,3.000000,73.000000,,,,0.000000,4.000000,4.000000,4.000000,4.000000,4.000000,4.000000,4.000000,4.000000,4.000000,4.000000,4.000000,4.000000,4.000000,4.000000,100.000000,,,,,,,,,,,,,,,,
1741764854.610633,1741764854.783077,29.000000,0.000000,4299.871582,4260.256348,4324.487305,4214.487305,4256.922852,4275.256348,4271.794922,4250.769043,4228.077148,4219.102539,4397.051270,4433.846191,4316.538574,4395.000000,0.000000,3.000000,73.000000,,,,0.000000,4.000000,4.000000,4.000000,4.000000,4.000000,4.000000,4.000000,4.000000,4.000000,4.000000,4.000000,4.000000,4.000000,4.000000,100.000000,,,,,,,,,,,,,,,,
1741764854.618441,1741764854.790785,30.000000,0.000000,4310.128418,4268.461426,4330.897461,4234.358887,4254.230957,4267.948730,4274.743652,4250.384766,4227.563965,4232.179688,4416.282227,4445.384766,4331.410156,4400.000000,0.000000,3.000000,73.000000,,,,0.000000,4.000000,4.000000,4.000000,4.000000,4.000000,4.000000,4.000000,4.000000,4.000000,4.000000,4.000000,4.000000,4.000000,4.000000,100.000000,,,,,,,,,,,,,,,,
1741764854.626250,1741764854.798593,31.000000,0.000000,4320.000000,4266.538574,4334.230957,4241.410156,4245.897461,4265.128418,4276.922852,4248.846191,4216.282227,4217.820313,4381.282227,4449.102539,4319.358887,4400.000000,0.000000,3.000000,73.000000,,,,0.000000,4.000000,4.000000,4.000000,4.000000,4.000000,4.000000,4.000000,4.000000,4.000000,4.000000,4.000000,4.000000,4.000000,4.000000,100.000000,,,,,,,,,,,,,,,,
1741764854.634058,1741764854.806302,32.000000,0.000000,4306.922852,4256.282227,4327.307617,4226.153809,4252.692383,4264.743652,4273.461426,4258.717773,4224.743652,4213.077148,4376.922852,4442.179688,4315.897461,4390.641113,0.000000,3.000000,73.000000,,,,0.000000,4.000000,4.000000,4.000000,4.000000,4.000000,4.000000,4.000000,4.000000,4.000000,4.000000,4.000000,4.000000,4.000000,4.000000,100.000000,,,,,,,,,,,,,,,,
1741764854.641866,1741764854.814210,33.000000,0.000000,4293.974121,4256.922852,4323.333496,4215.128418,4255.769043,4259.230957,4274.230957,4257.563965,4233.333496,4227.179688,4414.743652,4437.051270,4326.282227,4376.153809,0.000000,3.000000,73.000000,,,,0.000000,4.000000,4.000000,4.000000,4.000000,4.000000,4.000000,4.000000,4.000000,4.000000,4.000000,4.000000,4.000000,4.000000,4.000000,100.000000,,,,,,,,,,,,,,,,
1741764854.649674,1741764854.822018,34.000000,0.000000,4292.563965,4255.769043,4326.025879,4212.179688,4248.846191,4253.333496,4272.307617,4243.333496,4225.128418,4224.358887,4413.717773,4432.820313,4319.871582,4376.282227,0.000000,3.000000,73.000000,,,,0.000000,4.000000,4.000000,4.000000,4.000000,4.000000,4.000000,4.000000,4.000000,4.000000,4.000000,4.000000,4.000000,4.000000,4.000000,100.000000,,,,,,,,,,,,,,,,
1741764854.657482,1741764854.829926,35.000000,0.000000,4287.051270,4247.948730,4319.102539,4207.948730,4248.461426,4250.897461,4263.077148,4232.820313,4212.820313,4217.820313,4382.948730,4422.948730,4309.743652,4375.641113,0.000000,3.000000,73.000000,,,,0.000000,4.000000,4.000000,4.000000,4.000000,4.000000,4.000000,4.000000,4.000000,4.000000,4.000000,4.000000,4.000000,4.000000,4.000000,100.000000,,,,,,,,,,,,,,,,
1741764854.665290,1741764854.837734,36.000000,0.000000,4285.000000,4249.487305,4312.436035,4210.256348,4252.179688,4249.743652,4263.461426,4231.922852,4208.205078,4224.230957,4375.512695,4417.948730,4313.205078,4364.487305,0.000000,3.000000,73.000000,,,,0.000000,4.000000,4.000000,4.000000,4.000000,4.000000,4.000000,4.000000,4.000000,4.000000,4.000000,4.000000,4.000000,4.000000,4.000000,100.000000,,,,,,,,,,,,,,,,
1741764854.673098,1741764854.845642,37.000000,0.000000,4295.256348,4261.282227,4323.846191,4215.769043,4255.641113,4250.897461,4272.820313,4243.974121,4219.615234,4224.358887,4390.128418,4428.846191,4318.461426,4374.102539,0.000000,3.000000,73.000000,,,,0.000000,4.000000,4.000000,4.000000,4.000000,4.000000,4.000000,4.000000,4.000000,4.000000,4.000000,4.000000,4.000000,4.000000,4.000000,100.000000,,,,,,,,,,,,,,,,
1741764854.680906,1741764854.853451,38.000000,0.000000,4309.615234,4271.025879,4347.948730,4217.051270,4267.948730,4261.025879,4291.410156,4263.589844,4243.077148,4230.384766,4411.666504,4455.000000,4330.000000,4404.743652,0.000000,3.000000,73.000000,,,,0.000000,4.000000,4.000000,4.000000,4.000000,4.000000,4.000000,4.000000,4.000000,4.000000,4.000000,4.000000,4.000000,4.000000,4.000000,100.000000,,,,,,,,,,,,,,,,
1741764854.688714,1741764854.861259,39.000000,0.000000,4313.717773,4276.538574,4350.000000,4211.922852,4275.897461,4258.589844,4294.102539,4269.358887,4250.769043,4244.358887,4425.641113,4466.153809,4340.256348,4415.256348,0.000000,3.000000,73.000000,,,,0.000000,4.000000,4.000000,4.000000,4.000000,4.000000,4.000000,4.000000,4.000000,4.000000,4.000000,4.000000,4.000000,4.000000,4.000000,100.000000,,,,,,,,,,,,,,,,
1741764854.696523,1741764854.868967,40.000000,0.000000,4302.820313,4275.641113,4328.717773,4200.641113,4273.846191,4242.307617,4274.487305,4258.717773,4236.282227,4237.948730,4413.333496,4445.641113,4333.589844,4403.077148,0.000000,3.000000,73.000000,,,,0.000000,4.000000,4.000000,4.000000,4.000000,4.000000,4.000000,4.000000,4.000000,4.000000,4.000000,4.000000,4.000000,4.000000,4.000000,100.000000,,,,,,,,,,,,,,,,
