title:angry, start timestamp:1741771332.638677, stop timestamp:1741771337.549973, headset type:EPOCX, headset serial:E502023B, headset firmware:730, channels:55, sampling rate:eeg_128, samples:630       , version:2.2, 
Timestamp,OriginalTimestamp,EEG.Counter,EEG.Interpolated,EEG.AF3,EEG.F7,EEG.F3,EEG.FC5,EEG.T7,EEG.P7,EEG.O1,EEG.O2,EEG.P8,EEG.T8,EEG.FC6,EEG.F4,EEG.F8,EEG.AF4,EEG.RawCq,EEG.Battery,EEG.BatteryPercent,MarkerIndex,MarkerType,MarkerValueInt,EEG.MarkerHardware,CQ.AF3,CQ.F7,CQ.F3,CQ.FC5,CQ.T7,CQ.P7,CQ.O1,CQ.O2,CQ.P8,CQ.T8,CQ.FC6,CQ.F4,CQ.F8,CQ.AF4,CQ.Overall,EQ.SampleRateQuality,EQ.OVERALL,EQ.AF3,EQ.F7,EQ.F3,EQ.FC5,EQ.T7,EQ.P7,EQ.O1,EQ.O2,EQ.P8,EQ.T8,EQ.FC6,EQ.F4,EQ.F8,EQ.AF4
1741771332.638677,1741771332.639659,112.000000,0.000000,4334.743652,4318.717773,4337.307617,4310.384766,4298.846191,4364.615234,4323.846191,4302.051270,4414.230957,4231.666504,4478.589844,4429.102539,4366.025879,4424.358887,6035.000000,2.000000,48.000000,,,,0.000000,4.000000,4.000000,4.000000,4.000000,4.000000,4.000000,4.000000,4.000000,4.000000,4.000000,4.000000,4.000000,4.000000,4.000000,100.000000,,,,,,,,,,,,,,,,
1741771332.646485,1741771332.647367,113.000000,0.000000,4338.589844,4331.538574,4346.794922,4321.922852,4305.128418,4361.153809,4328.589844,4303.205078,4426.538574,4242.820313,4493.205078,4436.666504,4376.538574,4434.358887,4517.000000,2.000000,48.000000,,,,0.000000,4.000000,4.000000,4.000000,4.000000,4.000000,4.000000,4.000000,4.000000,4.000000,4.000000,4.000000,4.000000,4.000000,4.000000,100.000000,,,,,,,,,,,,,,,,
1741771332.654294,1741771332.655275,114.000000,0.000000,4342.820313,4350.256348,4355.641113,4333.461426,4302.179688,4355.897461,4328.077148,4309.743652,4428.974121,4250.897461,4499.102539,4449.743652,4384.102539,4440.641113,6107.000000,2.000000,48.000000,,,,0.000000,4.000000,4.000000,4.000000,4.000000,4.000000,4.000000,4.000000,4.000000,4.000000,4.000000,4.000000,4.000000,4.000000,4.000000,100.000000,,,,,,,,,,,,,,,,
1741771332.662102,1741771332.663083,115.000000,0.000000,4360.000000,4364.743652,4376.025879,4349.487305,4310.897461,4351.666504,4329.102539,4321.538574,4433.333496,4258.461426,4505.897461,4468.461426,4395.897461,4455.769043,6234.000000,2.000000,48.000000,,,,0.000000,4.000000,4.000000,4.000000,4.000000,4.000000,4.000000,4.000000,4.000000,4.000000,4.000000,4.000000,4.000000,4.000000,4.000000,100.000000,,,,,,,,,,,,,,,,
1741771332.669910,1741771332.670892,116.000000,0.000000,4370.000000,4363.205078,4385.769043,4351.282227,4321.025879,4344.487305,4321.153809,4312.307617,4429.743652,4260.128418,4509.615234,4468.461426,4402.307617,4471.153809,6035.000000,2.000000,48.000000,,,,0.000000,4.000000,4.000000,4.000000,4.000000,4.000000,4.000000,4.000000,4.000000,4.000000,4.000000,4.000000,4.000000,4.000000,4.000000,100.000000,,,,,,,,,,,,,,,,
1741771332.677718,1741771332.678600,117.000000,0.000000,4367.820313,4348.589844,4368.974121,4335.512695,4312.179688,4341.025879,4308.333496,4298.974121,4425.128418,4253.974121,4507.051270,4456.538574,4396.025879,4466.666504,4517.000000,2.000000,48.000000,,,,0.000000,4.000000,4.000000,4.000000,4.000000,4.000000,4.000000,4.000000,4.000000,4.000000,4.000000,4.000000,4.000000,4.000000,4.000000,100.000000,,,,,,,,,,,,,,,,
1741771332.685526,1741771332.686408,118.000000,0.000000,4363.077148,4339.487305,4348.589844,4327.820313,4301.410156,4340.128418,4301.922852,4299.487305,4432.179688,4252.051270,4498.974121,4452.436035,4384.871582,4448.077148,6107.000000,2.000000,48.000000,,,,0.000000,4.000000,4.000000,4.000000,4.000000,4.000000,4.000000,4.000000,4.000000,4.000000,4.000000,4.000000,4.000000,4.000000,4.000000,100.000000,,,,,,,,,,,,,,,,
1741771332.693334,1741771332.694116,119.000000,0.000000,4344.102539,4330.256348,4335.256348,4321.666504,4296.922852,4335.512695,4301.025879,4295.384766,4435.384766,4241.025879,4481.922852,4446.794922,4371.282227,4430.128418,6234.000000,2.000000,48.000000,,,,0.000000,4.000000,4.000000,4.000000,4.000000,4.000000,4.000000,4.000000,4.000000,4.000000,4.000000,4.000000,4.000000,4.000000,4.000000,100.000000,,,,,,,,,,,,,,,,
1741771332.701142,1741771332.702025,120.000000,0.000000,4324.743652,4317.948730,4326.794922,4307.307617,4290.897461,4333.333496,4305.256348,4284.743652,4432.179688,4221.282227,4466.025879,4432.051270,4360.384766,4421.666504,6035.000000,2.000000,48.000000,,,,0.000000,4.000000,4.000000,4.000000,4.000000,4.000000,4.000000,4.000000,4.000000,4.000000,4.000000,4.000000,4.000000,4.000000,4.000000,100.000000,,,,,,,,,,,,,,,,
1741771332.708950,1741771332.709833,121.000000,0.000000,4333.077148,4321.794922,4330.384766,4307.692383,4292.436035,4339.102539,4316.922852,4285.256348,4437.051270,4220.128418,4464.358887,4428.846191,4362.948730,4422.948730,4517.000000,2.000000,48.000000,,,,0.000000,4.000000,4.000000,4.000000,4.000000,4.000000,4.000000,4.000000,4.000000,4.000000,4.000000,4.000000,4.000000,4.000000,4.000000,100.000000,,,,,,,,,,,,,,,,
1741771332.716758,1741771332.717741,122.000000,0.000000,4335.769043,4327.307617,4328.589844,4313.461426,4298.461426,4339.487305,4321.922852,4289.230957,4439.487305,4221.410156,4463.974121,4435.512695,4360.000000,4421.410156,6107.000000,2.000000,48.000000,,,,0.000000,4.000000,4.000000,4.000000,4.000000,4.000000,4.000000,4.000000,4.000000,4.000000,4.000000,4.000000,4.000000,4.000000,4.000000,100.000000,,,,,,,,,,,,,,,,
1741771332.724567,1741771332.725549,123.000000,0.000000,4321.922852,4319.102539,4317.307617,4306.153809,4294.487305,4325.897461,4313.333496,4283.205078,4428.974121,4212.179688,4457.051270,4427.307617,4349.230957,4417.179688,6234.000000,2.000000,48.000000,,,,0.000000,4.000000,4.000000,4.000000,4.000000,4.000000,4.000000,4.000000,4.000000,4.000000,4.000000,4.000000,4.000000,4.000000,4.000000,100.000000,,,,,,,,,,,,,,,,
1741771332.732375,1741771332.733457,124.000000,0.000000,4326.410156,4318.589844,4326.025879,4310.641113,4292.820313,4313.333496,4310.000000,4288.205078,4428.205078,4216.666504,4464.230957,4427.179688,4360.512695,4424.358887,6035.000000,2.000000,48.000000,,,,0.000000,4.000000,4.000000,4.000000,4.000000,4.000000,4.000000,4.000000,4.000000,4.000000,4.000000,4.000000,4.000000,4.000000,4.000000,100.000000,,,,,,,,,,,,,,,,
1741771332.740183,1741771332.741265,125.000000,0.000000,4347.692383,4335.128418,4353.333496,4330.256348,4299.102539,4309.102539,4312.948730,4307.948730,4444.487305,4236.025879,4483.974121,4451.666504,4384.615234,4441.538574,4517.000000,2.000000,48.000000,,,,0.000000,4.000000,4.000000,4.000000,4.000000,4.000000,4.000000,4.000000,4.000000,4.000000,4.000000,4.000000,4.000000,4.000000,4.000000,100.000000,,,,,,,,,,,,,,,,
1741771332.747991,1741771332.749173,126.000000,0.000000,4365.512695,4349.358887,4370.128418,4341.538574,4300.256348,4304.615234,4306.538574,4313.333496,4452.948730,4248.846191,4495.128418,4465.000000,4391.794922,4454.615234,6107.000000,2.000000,48.000000,,,,0.000000,4.000000,4.000000,4.000000,4.000000,4.000000,4.000000,4.000000,4.000000,4.000000,4.000000,4.000000,4.000000,4.000000,4.000000,100.000000,,,,,,,,,,,,,,,,
1741771332.755799,1741771332.756982,127.000000,0.000000,4378.333496,4360.384766,4378.205078,4351.025879,4306.666504,4305.000000,4303.077148,4313.717773,4451.794922,4256.282227,4506.410156,4467.820313,4399.230957,4469.871582,48.000000,2.000000,48.000000,,,,0.000000,4.000000,4.000000,4.000000,4.000000,4.000000,4.000000,4.000000,4.000000,4.000000,4.000000,4.000000,4.000000,4.000000,4.000000,100.000000,,,,,,,,,,,,,,,,
1741771332.763607,1741771332.764690,0.000000,0.000000,4382.563965,4372.563965,4392.563965,4367.051270,4320.000000,4308.846191,4307.051270,4320.128418,4457.563965,4272.820313,4526.282227,4474.871582,4418.717773,4484.487305,5829.000000,2.000000,48.000000,,,,0.000000,4.000000,4.000000,4.000000,4.000000,4.000000,4.000000,4.000000,4.000000,4.000000,4.000000,4.000000,4.000000,4.000000,4.000000,100.000000,,,,,,,,,,,,,,,,
1741771332.771415,1741771332.772598,1.000000,0.000000,4368.205078,4365.384766,4386.538574,4359.743652,4311.025879,4308.717773,4299.102539,4313.589844,4456.153809,4270.897461,4521.025879,4468.846191,4410.256348,4469.615234,5713.000000,2.000000,48.000000,,,,0.000000,4.000000,4.000000,4.000000,4.000000,4.000000,4.000000,4.000000,4.000000,4.000000,4.000000,4.000000,4.000000,4.000000,4.000000,100.000000,,,,,,,,,,,,,,,,
1741771332.779223,1741771332.780406,2.000000,0.000000,4355.000000,4339.871582,4355.769043,4329.230957,4287.307617,4308.461426,4289.615234,4300.641113,4441.282227,4242.948730,4490.256348,4449.615234,4378.077148,4440.897461,5609.000000,2.000000,48.000000,,,,0.000000,4.000000,4.000000,4.000000,4.000000,4.000000,4.000000,4.000000,4.000000,4.000000,4.000000,4.000000,4.000000,4.000000,4.000000,100.000000,,,,,,,,,,,,,,,,
1741771332.787031,1741771332.788214,3.000000,0.000000,4346.025879,4320.897461,4341.153809,4313.589844,4286.410156,4309.358887,4298.974121,4295.897461,4438.205078,4231.025879,4471.282227,4435.897461,4363.333496,4428.846191,5521.000000,2.000000,48.000000,,,,0.000000,4.000000,4.000000,4.000000,4.000000,4.000000,4.000000,4.000000,4.000000,4.000000,4.000000,4.000000,4.000000,4.000000,4.000000,100.000000,,,,,,,,,,,,,,,,
1741771332.794840,1741771332.795923,4.000000,0.000000,4325.897461,4308.717773,4340.000000,4305.384766,4291.282227,4307.948730,4309.102539,4296.282227,4437.179688,4227.692383,4460.769043,4431.025879,4352.692383,4416.794922,5485.000000,2.000000,48.000000,,,,0.000000,4.000000,4.000000,4.000000,4.000000,4.000000,4.000000,4.000000,4.000000,4.000000,4.000000,4.000000,4.000000,4.000000,4.000000,100.000000,,,,,,,,,,,,,,,,
1741771332.802647,1741771332.803731,5.000000,0.000000,4315.128418,4305.769043,4332.051270,4295.256348,4284.615234,4301.922852,4303.717773,4291.794922,4422.692383,4216.282227,4452.820313,4426.282227,4340.769043,4404.230957,3705.000000,2.000000,48.000000,,,,0.000000,4.000000,4.000000,4.000000,4.000000,4.000000,4.000000,4.000000,4.000000,4.000000,4.000000,4.000000,4.000000,4.000000,4.000000,100.000000,,,,,,,,,,,,,,,,
1741771332.810456,1741771332.811439,6.000000,0.000000,4325.256348,4318.589844,4333.205078,4303.333496,4289.230957,4297.820313,4303.461426,4290.897461,4416.153809,4218.717773,4459.358887,4429.230957,4346.282227,4413.205078,5475.000000,2.000000,48.000000,,,,0.000000,4.000000,4.000000,4.000000,4.000000,4.000000,4.000000,4.000000,4.000000,4.000000,4.000000,4.000000,4.000000,4.000000,4.000000,100.000000,,,,,,,,,,,,,,,,
1741771332.818264,1741771332.819347,7.000000,0.000000,4332.563965,4326.410156,4338.717773,4313.205078,4298.461426,4298.333496,4316.794922,4296.410156,4417.820313,4227.563965,4465.000000,4436.794922,4353.205078,4420.128418,3779.000000,2.000000,48.000000,,,,0.000000,4.000000,4.000000,4.000000,4.000000,4.000000,4.000000,4.000000,4.000000,4.000000,4.000000,4.000000,4.000000,4.000000,4.000000,100.000000,,,,,,,,,,,,,,,,
1741771332.826072,1741771332.827156,8.000000,0.000000,4323.077148,4314.615234,4330.256348,4303.589844,4295.128418,4295.512695,4319.743652,4292.436035,4412.692383,4223.846191,4459.743652,4432.692383,4347.692383,4405.000000,4200.000000,2.000000,48.000000,,,,0.000000,4.000000,4.000000,4.000000,4.000000,4.000000,4.000000,4.000000,4.000000,4.000000,4.000000,4.000000,4.000000,4.000000,4.000000,100.000000,,,,,,,,,,,,,,,,
1741771332.833880,1741771332.834964,9.000000,0.000000,4315.641113,4306.282227,4331.794922,4296.538574,4289.871582,4288.205078,4313.974121,4294.102539,4407.820313,4221.153809,4459.871582,4430.384766,4345.000000,4399.358887,5495.000000,2.000000,48.000000,,,,0.000000,4.000000,4.000000,4.000000,4.000000,4.000000,4.000000,4.000000,4.000000,4.000000,4.000000,4.000000,4.000000,4.000000,4.000000,100.000000,,,,,,,,,,,,,,,,
1741771332.841688,1741771332.842672,10.000000,0.000000,4335.384766,4324.487305,4358.717773,4311.410156,4293.205078,4274.871582,4312.051270,4303.717773,4406.153809,4232.051270,4470.769043,4443.077148,4353.333496,4421.153809,6103.000000,2.000000,48.000000,,,,0.000000,4.000000,4.000000,4.000000,4.000000,4.000000,4.000000,4.000000,4.000000,4.000000,4.000000,4.000000,4.000000,4.000000,4.000000,100.000000,,,,,,,,,,,,,,,,
1741771332.849496,1741771332.850480,11.000000,0.000000,4376.025879,4351.410156,4387.307617,4335.897461,4301.666504,4267.051270,4311.794922,4301.282227,4402.948730,4247.948730,4486.025879,4457.051270,4369.358887,4449.230957,6232.000000,2.000000,48.000000,,,,0.000000,4.000000,4.000000,4.000000,4.000000,4.000000,4.000000,4.000000,4.000000,4.000000,4.000000,4.000000,4.000000,4.000000,4.000000,100.000000,,,,,,,,,,,,,,,,
1741771332.857304,1741771332.858189,12.000000,0.000000,4394.358887,4354.743652,4396.153809,4346.282227,4305.641113,4269.230957,4305.897461,4300.769043,4404.615234,4251.666504,4493.333496,4464.743652,4379.230957,4455.769043,6027.000000,2.000000,48.000000,,,,0.000000,4.000000,4.000000,4.000000,4.000000,4.000000,4.000000,4.000000,4.000000,4.000000,4.000000,4.000000,4.000000,4.000000,4.000000,100.000000,,,,,,,,,,,,,,,,
1741771332.865112,1741771332.866097,13.000000,0.000000,4374.487305,4341.153809,4384.358887,4337.820313,4300.641113,4263.333496,4294.615234,4300.897461,4406.922852,4241.153809,4480.128418,4457.051270,4367.051270,4439.743652,4485.000000,2.000000,48.000000,,,,0.000000,4.000000,4.000000,4.000000,4.000000,4.000000,4.000000,4.000000,4.000000,4.000000,4.000000,4.000000,4.000000,4.000000,4.000000,100.000000,,,,,,,,,,,,,,,,
1741771332.872920,1741771332.873905,14.000000,0.000000,4348.974121,4331.153809,4367.179688,4325.512695,4294.871582,4258.846191,4294.871582,4293.461426,4406.538574,4227.307617,4462.179688,4439.230957,4350.256348,4424.743652,6103.000000,2.000000,48.000000,,,,0.000000,4.000000,4.000000,4.000000,4.000000,4.000000,4.000000,4.000000,4.000000,4.000000,4.000000,4.000000,4.000000,4.000000,4.000000,100.000000,,,,,,,,,,,,,,,,
1741771332.880729,1741771332.881813,15.000000,0.000000,4337.307617,4321.794922,4354.358887,4316.282227,4293.974121,4263.846191,4304.487305,4300.128418,4421.794922,4216.282227,4455.000000,4443.717773,4344.102539,4416.922852,6232.000000,2.000000,48.000000,,,,0.000000,4.000000,4.000000,4.000000,4.000000,4.000000,4.000000,4.000000,4.000000,4.000000,4.000000,4.000000,4.000000,4.000000,4.000000,100.000000,,,,,,,,,,,,,,,,
1741771332.888537,1741771332.889621,16.000000,0.000000,4333.333496,4311.153809,4341.282227,4305.897461,4286.410156,4257.563965,4303.077148,4295.256348,4440.128418,4204.358887,4444.871582,4435.769043,4331.153809,4400.256348,0.000000,2.000000,48.000000,,,,0.000000,4.000000,4.000000,4.000000,4.000000,4.000000,4.000000,4.000000,4.000000,4.000000,4.000000,4.000000,4.000000,4.000000,4.000000,100.000000,,,,,,,,,,,,,,,,
1741771332.896345,1741771332.897430,17.000000,0.000000,4332.051270,4306.282227,4331.410156,4299.102539,4277.820313,4245.512695,4298.717773,4282.692383,4450.128418,4194.358887,4435.000000,4414.871582,4319.615234,4386.922852,0.000000,2.000000,48.000000,,,,0.000000,4.000000,4.000000,4.000000,4.000000,4.000000,4.000000,4.000000,4.000000,4.000000,4.000000,4.000000,4.000000,4.000000,4.000000,100.000000,,,,,,,,,,,,,,,,
1741771332.904153,1741771332.905138,18.000000,0.000000,4329.230957,4306.025879,4328.846191,4297.307617,4281.922852,4242.948730,4300.512695,4299.615234,4470.000000,4200.384766,4438.077148,4427.692383,4323.589844,4391.538574,0.000000,2.000000,48.000000,,,,0.000000,4.000000,4.000000,4.000000,4.000000,4.000000,4.000000,4.000000,4.000000,4.000000,4.000000,4.000000,4.000000,4.000000,4.000000,100.000000,,,,,,,,,,,,,,,,
1741771332.911961,1741771332.913046,19.000000,0.000000,4315.256348,4305.128418,4324.102539,4295.000000,4287.307617,4244.358887,4295.897461,4296.538574,4484.487305,4201.922852,4434.230957,4423.333496,4322.436035,4386.025879,0.000000,2.000000,48.000000,,,,0.000000,4.000000,4.000000,4.000000,4.000000,4.000000,4.000000,4.000000,4.000000,4.000000,4.000000,4.000000,4.000000,4.000000,4.000000,100.000000,,,,,,,,,,,,,,,,
1741771332.919769,1741771332.920854,20.000000,0.000000,4300.256348,4301.025879,4318.846191,4294.358887,4279.871582,4240.000000,4283.846191,4277.820313,4482.563965,4190.384766,4427.051270,4409.358887,4311.922852,4372.820313,0.000000,2.000000,48.000000,,,,0.000000,4.000000,4.000000,4.000000,4.000000,4.000000,4.000000,4.000000,4.000000,4.000000,4.000000,4.000000,4.000000,4.000000,4.000000,100.000000,,,,,,,,,,,,,,,,
1741771332.927577,1741771332.928762,21.000000,0.000000,4310.512695,4306.794922,4322.820313,4301.153809,4274.871582,4229.230957,4276.410156,4279.743652,4485.769043,4188.974121,4434.615234,4417.692383,4313.589844,4381.666504,0.000000,2.000000,48.000000,,,,0.000000,4.000000,4.000000,4.000000,4.000000,4.000000,4.000000,4.000000,4.000000,4.000000,4.000000,4.000000,4.000000,4.000000,4.000000,100.000000,,,,,,,,,,,,,,,,
1741771332.935385,1741771332.936570,22.000000,0.000000,4331.922852,4321.666504,4333.205078,4312.051270,4281.410156,4222.179688,4277.051270,4281.538574,4497.692383,4193.974121,4447.307617,4423.205078,4327.051270,4397.820313,0.000000,2.000000,48.000000,,,,0.000000,4.000000,4.000000,4.000000,4.000000,4.000000,4.000000,4.000000,4.000000,4.000000,4.000000,4.000000,4.000000,4.000000,4.000000,100.000000,,,,,,,,,,,,,,,,
1741771332.943193,1741771332.944279,23.000000,0.000000,4337.436035,4331.922852,4345.384766,4322.948730,4290.128418,4220.384766,4280.897461,4288.846191,4509.743652,4203.589844,4459.358887,4433.846191,4338.846191,4407.948730,0.000000,2.000000,48.000000,,,,0.000000,4.000000,4.000000,4.000000,4.000000,4.000000,4.000000,4.000000,4.000000,4.000000,4.000000,4.000000,4.000000,4.000000,4.000000,100.000000,,,,,,,,,,,,,,,,
1741771332.951002,1741771332.952087,24.000000,0.000000,4337.436035,4337.820313,4355.769043,4332.051270,4297.563965,4219.743652,4288.333496,4300.128418,4520.512695,4210.256348,4466.922852,4440.384766,4346.922852,4415.897461,0.000000,2.000000,48.000000,,,,0.000000,4.000000,4.000000,4.000000,4.000000,4.000000,4.000000,4.000000,4.000000,4.000000,4.000000,4.000000,4.000000,4.000000,4.000000,100.000000,,,,,,,,,,,,,,,,
1741771332.958810,1741771332.959795,25.000000,0.000000,4338.974121,4338.205078,4355.128418,4332.307617,4299.487305,4219.615234,4300.512695,4310.897461,4533.846191,4199.743652,4462.948730,4440.641113,4344.487305,4414.102539,0.000000,2.000000,48.000000,,,,0.000000,4.000000,4.000000,4.000000,4.000000,4.000000,4.000000,4.000000,4.000000,4.000000,4.000000,4.000000,4.000000,4.000000,4.000000,100.000000,,,,,,,,,,,,,,,,
1741771332.966618,1741771332.967603,26.000000,0.000000,4327.436035,4326.025879,4341.282227,4318.589844,4293.717773,4218.717773,4304.102539,4311.538574,4542.692383,4187.051270,4450.897461,4433.589844,4328.974121,4398.589844,0.000000,2.000000,48.000000,,,,0.000000,4.000000,4.000000,4.000000,4.000000,4.000000,4.000000,4.000000,4.000000,4.000000,4.000000,4.000000,4.000000,4.000000,4.000000,100.000000,1.000000,41.666668,4.000000,4.000000,3.000000,4.000000,4.000000,1.000000,4.000000,4.000000,1.000000,4.000000,4.000000,4.000000,4.000000,4.000000
1741771332.974426,1741771332.975312,27.000000,0.000000,4316.282227,4315.128418,4330.512695,4307.436035,4287.820313,4222.820313,4301.282227,4304.358887,4551.794922,4180.000000,4443.333496,4422.948730,4320.384766,4389.230957,0.000000,2.000000,48.000000,,,,0.000000,4.000000,4.000000,4.000000,4.000000,4.000000,4.000000,4.000000,4.000000,4.000000,4.000000,4.000000,4.000000,4.000000,4.000000,100.000000,,,,,,,,,,,,,,,,
1741771332.982234,1741771332.983220,28.000000,0.000000,4311.410156,4312.948730,4329.487305,4306.153809,4283.974121,4225.384766,4301.153809,4301.794922,4570.128418,4173.077148,4439.615234,4420.641113,4320.256348,4384.487305,0.000000,2.000000,48.000000,,,,0.000000,4.000000,4.000000,4.000000,4.000000,4.000000,4.000000,4.000000,4.000000,4.000000,4.000000,4.000000,4.000000,4.000000,4.000000,100.000000,,,,,,,,,,,,,,,,
1741771332.990042,1741771332.991028,29.000000,0.000000,4303.974121,4314.102539,4330.000000,4309.358887,4282.820313,4226.666504,4304.102539,4297.051270,4586.666504,4166.666504,4432.563965,4418.077148,4315.897461,4376.794922,0.000000,2.000000,48.000000,,,,0.000000,4.000000,4.000000,4.000000,4.000000,4.000000,4.000000,4.000000,4.000000,4.000000,4.000000,4.000000,4.000000,4.000000,4.000000,100.000000,,,,,,,,,,,,,,,,
1741771332.997850,1741771332.998836,30.000000,0.000000,4297.820313,4318.589844,4328.205078,4311.666504,4287.436035,4233.846191,4303.589844,4292.436035,4604.615234,4160.384766,4428.846191,4416.922852,4310.512695,4377.820313,0.000000,2.000000,48.000000,,,,0.000000,4.000000,4.000000,4.000000,4.000000,4.000000,4.000000,4.000000,4.000000,4.000000,4.000000,4.000000,4.000000,4.000000,4.000000,100.000000,,,,,,,,,,,,,,,,
1741771333.005658,1741771333.006545,31.000000,0.000000,4291.153809,4318.205078,4327.563965,4306.666504,4292.692383,4236.538574,4293.974121,4287.436035,4633.846191,4152.179688,4428.974121,4413.717773,4309.487305,4376.922852,0.000000,2.000000,48.000000,,,,0.000000,4.000000,4.000000,4.000000,4.000000,4.000000,4.000000,4.000000,4.000000,4.000000,4.000000,4.000000,4.000000,4.000000,4.000000,100.000000,,,,,,,,,,,,,,,,
1741771333.013466,1741771333.014353,32.000000,0.000000,4293.717773,4314.102539,4330.000000,4305.256348,4293.846191,4232.692383,4283.974121,4286.666504,4662.820313,4145.512695,4433.846191,4415.512695,4314.487305,4374.487305,0.000000,2.000000,48.000000,,,,0.000000,4.000000,4.000000,4.000000,4.000000,4.000000,4.000000,4.000000,4.000000,4.000000,4.000000,4.000000,4.000000,4.000000,4.000000,100.000000,,,,,,,,,,,,,,,,
1741771333.021274,1741771333.022061,33.000000,0.000000,4301.153809,4316.794922,4328.461426,4310.128418,4290.641113,4226.282227,4275.000000,4284.487305,4673.333496,4143.974121,4437.307617,4417.307617,4318.077148,4379.102539,0.000000,2.000000,48.000000,,,,0.000000,4.000000,4.000000,4.000000,4.000000,4.000000,4.000000,4.000000,4.000000,4.000000,4.000000,4.000000,4.000000,4.000000,4.000000,100.000000,,,,,,,,,,,,,,,,
1741771333.029082,1741771333.029869,34.000000,0.000000,4296.538574,4323.846191,4326.025879,4311.025879,4287.692383,4223.333496,4269.743652,4280.000000,4675.000000,4145.000000,4436.666504,4411.282227,4318.077148,4381.282227,0.000000,2.000000,48.000000,,,,0.000000,4.000000,4.000000,4.000000,4.000000,4.000000,4.000000,4.000000,4.000000,4.000000,4.000000,4.000000,4.000000,4.000000,4.000000,100.000000,,,,,,,,,,,,,,,,
1741771333.036891,1741771333.037578,35.000000,0.000000,4289.102539,4324.871582,4333.717773,4311.538574,4290.641113,4226.282227,4280.897461,4289.615234,4691.282227,4140.641113,4440.384766,4417.051270,4320.256348,4381.153809,0.000000,2.000000,48.000000,,,,0.000000,4.000000,4.000000,4.000000,4.000000,4.000000,4.000000,4.000000,4.000000,4.000000,4.000000,4.000000,4.000000,4.000000,4.000000,100.000000,,,,,,,,,,,,,,,,
1741771333.044699,1741771333.045486,36.000000,0.000000,4293.333496,4323.589844,4340.512695,4317.436035,4293.717773,4227.820313,4297.307617,4296.025879,4717.563965,4132.436035,4443.077148,4423.333496,4322.820313,4384.615234,0.000000,2.000000,48.000000,,,,0.000000,4.000000,4.000000,4.000000,4.000000,4.000000,4.000000,4.000000,4.000000,4.000000,4.000000,4.000000,4.000000,4.000000,4.000000,100.000000,,,,,,,,,,,,,,,,
1741771333.052507,1741771333.053294,37.000000,0.000000,4294.615234,4323.333496,4335.512695,4315.897461,4292.820313,4229.487305,4304.743652,4292.948730,4741.025879,4123.461426,4436.538574,4418.205078,4317.436035,4382.692383,0.000000,2.000000,48.000000,,,,0.000000,4.000000,4.000000,4.000000,4.000000,4.000000,4.000000,4.000000,4.000000,4.000000,4.000000,4.000000,4.000000,4.000000,4.000000,100.000000,,,,,,,,,,,,,,,,
1741771333.060315,1741771333.061102,38.000000,0.000000,4283.974121,4319.102539,4333.589844,4307.179688,4290.512695,4231.538574,4305.897461,4294.743652,4754.871582,4117.563965,4431.922852,4416.538574,4314.230957,4376.410156,0.000000,2.000000,48.000000,,,,0.000000,4.000000,4.000000,4.000000,4.000000,4.000000,4.000000,4.000000,4.000000,4.000000,4.000000,4.000000,4.000000,4.000000,4.000000,100.000000,,,,,,,,,,,,,,,,
1741771333.068123,1741771333.068811,39.000000,0.000000,4279.102539,4315.897461,4343.589844,4305.769043,4288.589844,4231.922852,4304.743652,4297.179688,4766.153809,4118.846191,4433.461426,4419.871582,4320.384766,4378.974121,0.000000,2.000000,48.000000,,,,0.000000,4.000000,4.000000,4.000000,4.000000,4.000000,4.000000,4.000000,4.000000,4.000000,4.000000,4.000000,4.000000,4.000000,4.000000,100.000000,,,,,,,,,,,,,,,,
1741771333.075931,1741771333.076719,40.000000,0.000000,4280.641113,4309.487305,4344.871582,4305.769043,4285.512695,4231.153809,4301.025879,4299.102539,4777.820313,4112.563965,4429.615234,4421.153809,4318.461426,4378.333496,0.000000,2.000000,48.000000,,,,0.000000,4.000000,4.000000,4.000000,4.000000,4.000000,4.000000,4.000000,4.000000,4.000000,4.000000,4.000000,4.000000,4.000000,4.000000,100.000000,,,,,,,,,,,,,,,,
1741771333.083739,1741771333.084527,41.000000,0.000000,4282.179688,4303.589844,4340.512695,4308.077148,4287.051270,4230.512695,4300.128418,4300.256348,4780.641113,4106.666504,4431.282227,4421.538574,4316.538574,4377.179688,0.000000,2.000000,48.000000,,,,0.000000,4.000000,4.000000,4.000000,4.000000,4.000000,4.000000,4.000000,4.000000,4.000000,4.000000,4.000000,4.000000,4.000000,4.000000,100.000000,,,,,,,,,,,,,,,,
1741771333.091547,1741771333.092435,42.000000,0.000000,4280.256348,4307.307617,4346.025879,4313.717773,4293.717773,4230.641113,4301.410156,4300.641113,4775.769043,4113.205078,4440.897461,4424.615234,4325.256348,4384.102539,0.000000,2.000000,48.000000,,,,0.000000,4.000000,4.000000,4.000000,4.000000,4.000000,4.000000,4.000000,4.000000,4.000000,4.000000,4.000000,4.000000,4.000000,4.000000,100.000000,,,,,,,,,,,,,,,,
1741771333.099355,1741771333.100243,43.000000,0.000000,4283.846191,4318.077148,4355.000000,4317.051270,4295.000000,4227.948730,4295.769043,4299.487305,4769.230957,4120.128418,4446.025879,4428.974121,4330.256348,4390.769043,0.000000,2.000000,48.000000,,,,0.000000,4.000000,4.000000,4.000000,4.000000,4.000000,4.000000,4.000000,4.000000,4.000000,4.000000,4.000000,4.000000,4.000000,4.000000,100.000000,,,,,,,,,,,,,,,,
1741771333.107164,1741771333.108151,44.000000,0.000000,4296.153809,4321.794922,4357.692383,4320.256348,4292.563965,4223.974121,4281.282227,4292.563965,4759.871582,4124.615234,4445.641113,4430.000000,4328.077148,4394.743652,0.000000,2.000000,48.000000,,,,0.000000,4.000000,4.000000,4.000000,4.000000,4.000000,4.000000,4.000000,4.000000,4.000000,4.000000,4.000000,4.000000,4.000000,4.000000,100.000000,,,,,,,,,,,,,,,,
1741771333.114972,1741771333.115959,45.000000,0.000000,4305.128418,4318.974121,4358.589844,4321.922852,4292.692383,4225.769043,4276.025879,4297.563965,4752.692383,4129.230957,4450.512695,4436.025879,4330.128418,4401.153809,0.000000,2.000000,48.000000,,,,0.000000,4.000000,4.000000,4.000000,4.000000,4.000000,4.000000,4.000000,4.000000,4.000000,4.000000,4.000000,4.000000,4.000000,4.000000,100.000000,,,,,,,,,,,,,,,,
1741771333.122780,1741771333.123868,46.000000,0.000000,4311.922852,4327.436035,4368.717773,4328.589844,4295.384766,4230.256348,4292.436035,4310.897461,4758.589844,4143.205078,4466.538574,4446.025879,4347.051270,4417.179688,0.000000,2.000000,48.000000,,,,0.000000,4.000000,4.000000,4.000000,4.000000,4.000000,4.000000,4.000000,4.000000,4.000000,4.000000,4.000000,4.000000,4.000000,4.000000,100.000000,,,,,,,,,,,,,,,,
1741771333.130588,1741771333.131676,47.000000,0.000000,4310.641113,4332.436035,4376.410156,4334.230957,4295.512695,4233.461426,4310.512695,4316.282227,4761.538574,4155.641113,4473.333496,4447.179688,4357.820313,4424.358887,0.000000,2.000000,48.000000,,,,0.000000,4.000000,4.000000,4.000000,4.000000,4.000000,4.000000,4.000000,4.000000,4.000000,4.000000,4.000000,4.000000,4.000000,4.000000,100.000000,,,,,,,,,,,,,,,,
1741771333.138396,1741771333.139484,48.000000,0.000000,4298.077148,4320.000000,4369.102539,4328.205078,4293.077148,4234.743652,4315.384766,4316.922852,4756.025879,4145.256348,4465.000000,4438.846191,4345.897461,4411.666504,0.000000,2.000000,48.000000,,,,0.000000,4.000000,4.000000,4.000000,4.000000,4.000000,4.000000,4.000000,4.000000,4.000000,4.000000,4.000000,4.000000,4.000000,4.000000,100.000000,,,,,,,,,,,,,,,,
1741771333.146204,1741771333.147292,49.000000,0.000000,4297.179688,4312.563965,4360.769043,4322.307617,4297.307617,4235.897461,4321.922852,4313.589844,4755.641113,4133.717773,4460.512695,4430.384766,4333.589844,4400.384766,0.000000,2.000000,48.000000,,,,0.000000,4.000000,4.000000,4.000000,4.000000,4.000000,4.000000,4.000000,4.000000,4.000000,4.000000,4.000000,4.000000,4.000000,4.000000,100.000000,,,,,,,,,,,,,,,,
1741771333.154012,1741771333.155000,50.000000,0.000000,4301.025879,4314.487305,4355.384766,4320.897461,4298.974121,4244.615234,4331.794922,4314.743652,4758.205078,4137.820313,4460.897461,4430.769043,4333.589844,4399.230957,0.000000,2.000000,48.000000,,,,0.000000,4.000000,4.000000,4.000000,4.000000,4.000000,4.000000,4.000000,4.000000,4.000000,4.000000,4.000000,4.000000,4.000000,4.000000,100.000000,,,,,,,,,,,,,,,,
1741771333.161820,1741771333.162809,51.000000,0.000000,4286.153809,4307.436035,4346.538574,4314.102539,4293.974121,4248.205078,4322.563965,4315.384766,4756.025879,4135.769043,4448.717773,4426.922852,4332.692383,4393.846191,0.000000,2.000000,48.000000,,,,0.000000,4.000000,4.000000,4.000000,4.000000,4.000000,4.000000,4.000000,4.000000,4.000000,4.000000,4.000000,4.000000,4.000000,4.000000,100.000000,,,,,,,,,,,,,,,,
1741771333.169628,1741771333.170517,52.000000,0.000000,4275.000000,4298.205078,4337.436035,4306.922852,4290.256348,4240.641113,4306.153809,4306.282227,4751.282227,4119.358887,4429.487305,4411.538574,4320.000000,4377.948730,0.000000,2.000000,48.000000,,,,0.000000,4.000000,4.000000,4.000000,4.000000,4.000000,4.000000,4.000000,4.000000,4.000000,4.000000,4.000000,4.000000,4.000000,4.000000,100.000000,,,,,,,,,,,,,,,,
1741771333.177436,1741771333.178325,53.000000,0.000000,4282.179688,4305.128418,4342.436035,4308.205078,4289.615234,4243.077148,4307.307617,4304.487305,4755.256348,4116.410156,4430.256348,4408.461426,4314.871582,4373.846191,0.000000,2.000000,48.000000,,,,0.000000,4.000000,4.000000,4.000000,4.000000,4.000000,4.000000,4.000000,4.000000,4.000000,4.000000,4.000000,4.000000,4.000000,4.000000,100.000000,,,,,,,,,,,,,,,,
1741771333.185244,1741771333.186034,54.000000,0.000000,4285.897461,4314.487305,4347.563965,4309.358887,4288.717773,4249.487305,4304.871582,4306.922852,4761.025879,4127.948730,4441.922852,4417.436035,4327.948730,4383.589844,0.000000,2.000000,48.000000,,,,0.000000,4.000000,4.000000,4.000000,4.000000,4.000000,4.000000,4.000000,4.000000,4.000000,4.000000,4.000000,4.000000,4.000000,4.000000,100.000000,,,,,,,,,,,,,,,,
1741771333.193053,1741771333.193942,55.000000,0.000000,4285.128418,4311.922852,4341.410156,4307.948730,4287.692383,4245.512695,4288.846191,4303.846191,4759.230957,4125.384766,4442.179688,4425.641113,4338.205078,4388.589844,0.000000,2.000000,48.000000,,,,0.000000,4.000000,4.000000,4.000000,4.000000,4.000000,4.000000,4.000000,4.000000,4.000000,4.000000,4.000000,4.000000,4.000000,4.000000,100.000000,,,,,,,,,,,,,,,,
1741771333.200861,1741771333.201750,56.000000,0.000000,4297.692383,4310.897461,4341.794922,4312.563965,4292.436035,4240.128418,4282.436035,4303.717773,4759.743652,4124.358887,4443.077148,4426.410156,4341.153809,4389.487305,0.000000,2.000000,48.000000,,,,0.000000,4.000000,4.000000,4.000000,4.000000,4.000000,4.000000,4.000000,4.000000,4.000000,4.000000,4.000000,4.000000,4.000000,4.000000,100.000000,,,,,,,,,,,,,,,,
1741771333.208669,1741771333.209658,57.000000,0.000000,4306.410156,4315.384766,4343.589844,4316.410156,4293.333496,4241.153809,4288.077148,4309.230957,4758.974121,4138.974121,4449.743652,4422.563965,4342.563965,4393.974121,0.000000,2.000000,48.000000,,,,0.000000,4.000000,4.000000,4.000000,4.000000,4.000000,4.000000,4.000000,4.000000,4.000000,4.000000,4.000000,4.000000,4.000000,4.000000,100.000000,,,,,,,,,,,,,,,,
1741771333.216477,1741771333.217466,58.000000,0.000000,4305.384766,4321.153809,4347.563965,4320.641113,4295.000000,4244.487305,4295.769043,4314.743652,4749.487305,4147.051270,4449.487305,4426.410156,4342.692383,4400.897461,0.000000,2.000000,48.000000,,,,0.000000,4.000000,4.000000,4.000000,4.000000,4.000000,4.000000,4.000000,4.000000,4.000000,4.000000,4.000000,4.000000,4.000000,4.000000,100.000000,,,,,,,,,,,,,,,,
1741771333.224285,1741771333.225274,59.000000,0.000000,4317.307617,4331.538574,4370.000000,4332.692383,4313.846191,4251.153809,4314.615234,4322.820313,4742.436035,4151.282227,4452.692383,4436.794922,4350.256348,4411.282227,0.000000,2.000000,48.000000,,,,0.000000,4.000000,4.000000,4.000000,4.000000,4.000000,4.000000,4.000000,4.000000,4.000000,4.000000,4.000000,4.000000,4.000000,4.000000,100.000000,,,,,,,,,,,,,,,,
1741771333.232093,1741771333.232983,60.000000,0.000000,4329.615234,4337.692383,4387.820313,4340.384766,4323.717773,4263.077148,4336.410156,4339.230957,4741.666504,4159.615234,4465.512695,4445.897461,4361.282227,4418.717773,0.000000,2.000000,48.000000,,,,0.000000,4.000000,4.000000,4.000000,4.000000,4.000000,4.000000,4.000000,4.000000,4.000000,4.000000,4.000000,4.000000,4.000000,4.000000,100.000000,,,,,,,,,,,,,,,,
1741771333.239901,1741771333.240791,61.000000,0.000000,4327.563965,4336.282227,4380.641113,4337.563965,4314.743652,4263.461426,4328.717773,4339.230957,4728.717773,4162.436035,4463.717773,4446.282227,4361.025879,4415.769043,0.000000,2.000000,48.000000,,,,0.000000,4.000000,4.000000,4.000000,4.000000,4.000000,4.000000,4.000000,4.000000,4.000000,4.000000,4.000000,4.000000,4.000000,4.000000,100.000000,,,,,,,,,,,,,,,,
1741771333.247709,1741771333.248499,62.000000,0.000000,4327.436035,4338.333496,4369.230957,4338.846191,4311.666504,4254.102539,4304.230957,4321.538574,4710.256348,4161.666504,4449.743652,4443.846191,4353.717773,4412.307617,0.000000,2.000000,48.000000,,,,0.000000,4.000000,4.000000,4.000000,4.000000,4.000000,4.000000,4.000000,4.000000,4.000000,4.000000,4.000000,4.000000,4.000000,4.000000,100.000000,,,,,,,,,,,,,,,,
1741771333.255517,1741771333.256407,63.000000,0.000000,4322.051270,4340.128418,4362.436035,4342.179688,4310.512695,4253.077148,4297.563965,4321.153809,4706.666504,4154.487305,4443.717773,4445.512695,4349.615234,4409.871582,0.000000,2.000000,48.000000,,,,0.000000,4.000000,4.000000,4.000000,4.000000,4.000000,4.000000,4.000000,4.000000,4.000000,4.000000,4.000000,4.000000,4.000000,4.000000,100.000000,,,,,,,,,,,,,,,,
1741771333.263326,1741771333.264216,64.000000,0.000000,4304.743652,4332.563965,4355.769043,4336.666504,4303.717773,4261.153809,4303.205078,4326.666504,4709.358887,4145.641113,4443.974121,4441.666504,4344.358887,4398.974121,5809.000000,2.000000,48.000000,,,,0.000000,4.000000,4.000000,4.000000,4.000000,4.000000,4.000000,4.000000,4.000000,4.000000,4.000000,4.000000,4.000000,4.000000,4.000000,100.000000,,,,,,,,,,,,,,,,
1741771333.271134,1741771333.272124,65.000000,0.000000,4298.205078,4320.384766,4351.922852,4323.589844,4300.000000,4268.717773,4301.666504,4321.025879,4704.743652,4145.128418,4439.230957,4436.538574,4335.897461,4388.717773,5689.000000,2.000000,48.000000,,,,0.000000,4.000000,4.000000,4.000000,4.000000,4.000000,4.000000,4.000000,4.000000,4.000000,4.000000,4.000000,4.000000,4.000000,4.000000,100.000000,,,,,,,,,,,,,,,,
1741771333.278942,1741771333.279932,66.000000,0.000000,4303.205078,4313.589844,4343.589844,4313.589844,4298.974121,4269.102539,4293.077148,4311.282227,4700.256348,4141.794922,4427.948730,4425.256348,4327.307617,4385.000000,5579.000000,2.000000,48.000000,,,,0.000000,4.000000,4.000000,4.000000,4.000000,4.000000,4.000000,4.000000,4.000000,4.000000,4.000000,4.000000,4.000000,4.000000,4.000000,100.000000,,,,,,,,,,,,,,,,
1741771333.286750,1741771333.287840,67.000000,0.000000,4299.871582,4319.487305,4335.769043,4317.179688,4299.487305,4270.769043,4291.025879,4307.436035,4702.436035,4139.871582,4424.230957,4415.897461,4329.743652,4388.205078,5497.000000,2.000000,48.000000,,,,0.000000,4.000000,4.000000,4.000000,4.000000,4.000000,4.000000,4.000000,4.000000,4.000000,4.000000,4.000000,4.000000,4.000000,4.000000,100.000000,,,,,,,,,,,,,,,,
1741771333.294558,1741771333.295648,68.000000,0.000000,4287.051270,4319.358887,4329.102539,4319.743652,4302.948730,4280.512695,4295.641113,4312.436035,4706.410156,4146.794922,4430.128418,4420.769043,4338.846191,4390.256348,5469.000000,2.000000,48.000000,,,,0.000000,4.000000,4.000000,4.000000,4.000000,4.000000,4.000000,4.000000,4.000000,4.000000,4.000000,4.000000,4.000000,4.000000,4.000000,100.000000,,,,,,,,,,,,,,,,
1741771333.302366,1741771333.303556,69.000000,0.000000,4270.897461,4304.743652,4318.333496,4312.051270,4301.538574,4281.410156,4297.307617,4313.717773,4713.333496,4154.102539,4431.153809,4418.461426,4341.282227,4380.512695,3682.000000,2.000000,48.000000,,,,0.000000,4.000000,4.000000,4.000000,4.000000,4.000000,4.000000,4.000000,4.000000,4.000000,4.000000,4.000000,4.000000,4.000000,4.000000,100.000000,,,,,,,,,,,,,,,,
1741771333.310174,1741771333.311364,70.000000,0.000000,4265.769043,4304.871582,4317.307617,4313.846191,4296.666504,4275.384766,4301.538574,4316.666504,4725.641113,4158.461426,4436.153809,4418.205078,4346.666504,4381.922852,5459.000000,2.000000,48.000000,,,,0.000000,4.000000,4.000000,4.000000,4.000000,4.000000,4.000000,4.000000,4.000000,4.000000,4.000000,4.000000,4.000000,4.000000,4.000000,100.000000,,,,,,,,,,,,,,,,
1741771333.317982,1741771333.319273,71.000000,0.000000,4278.333496,4320.128418,4325.512695,4324.358887,4298.717773,4278.077148,4309.871582,4324.487305,4733.589844,4155.384766,4445.512695,4430.256348,4356.538574,4398.974121,3770.000000,2.000000,48.000000,,,,0.000000,4.000000,4.000000,4.000000,4.000000,4.000000,4.000000,4.000000,4.000000,4.000000,4.000000,4.000000,4.000000,4.000000,4.000000,100.000000,,,,,,,,,,,,,,,,
1741771333.325790,1741771333.327081,72.000000,0.000000,4286.025879,4324.743652,4334.102539,4328.205078,4302.948730,4281.794922,4313.077148,4325.512695,4736.410156,4152.692383,4447.436035,4437.307617,4357.692383,4401.666504,4163.000000,2.000000,48.000000,,,,0.000000,4.000000,4.000000,4.000000,4.000000,4.000000,4.000000,4.000000,4.000000,4.000000,4.000000,4.000000,4.000000,4.000000,4.000000,100.000000,,,,,,,,,,,,,,,,
1741771333.333599,1741771333.334789,73.000000,0.000000,4291.282227,4330.512695,4353.717773,4335.897461,4307.820313,4284.487305,4319.102539,4333.717773,4746.794922,4163.974121,4457.692383,4449.358887,4364.230957,4406.922852,5472.000000,2.000000,48.000000,,,,0.000000,4.000000,4.000000,4.000000,4.000000,4.000000,4.000000,4.000000,4.000000,4.000000,4.000000,4.000000,4.000000,4.000000,4.000000,100.000000,,,,,,,,,,,,,,,,
1741771333.341406,1741771333.342597,74.000000,0.000000,4313.717773,4346.538574,4375.512695,4350.512695,4316.538574,4290.000000,4323.077148,4344.358887,4754.615234,4174.230957,4476.922852,4461.922852,4381.922852,4430.000000,6097.000000,2.000000,48.000000,,,,0.000000,4.000000,4.000000,4.000000,4.000000,4.000000,4.000000,4.000000,4.000000,4.000000,4.000000,4.000000,4.000000,4.000000,4.000000,100.000000,,,,,,,,,,,,,,,,
1741771333.349215,1741771333.350306,75.000000,0.000000,4318.461426,4345.384766,4370.512695,4348.846191,4315.897461,4295.128418,4313.846191,4337.307617,4748.461426,4162.051270,4473.974121,4455.000000,4382.179688,4433.717773,6229.000000,2.000000,48.000000,,,,0.000000,4.000000,4.000000,4.000000,4.000000,4.000000,4.000000,4.000000,4.000000,4.000000,4.000000,4.000000,4.000000,4.000000,4.000000,100.000000,,,,,,,,,,,,,,,,
1741771333.357023,1741771333.358114,76.000000,0.000000,4301.538574,4334.871582,4358.205078,4343.717773,4311.922852,4302.563965,4311.410156,4327.948730,4746.410156,4150.000000,4460.384766,4442.436035,4367.563965,4415.641113,6043.000000,2.000000,48.000000,,,,0.000000,4.000000,4.000000,4.000000,4.000000,4.000000,4.000000,4.000000,4.000000,4.000000,4.000000,4.000000,4.000000,4.000000,4.000000,100.000000,,,,,,,,,,,,,,,,
1741771333.364831,1741771333.365822,77.000000,0.000000,4294.358887,4334.615234,4356.153809,4347.820313,4317.692383,4308.589844,4312.436035,4321.666504,4746.153809,4146.794922,4456.794922,4435.128418,4362.692383,4404.487305,4495.000000,2.000000,48.000000,,,,0.000000,4.000000,4.000000,4.000000,4.000000,4.000000,4.000000,4.000000,4.000000,4.000000,4.000000,4.000000,4.000000,4.000000,4.000000,100.000000,,,,,,,,,,,,,,,,
1741771333.372639,1741771333.373630,78.000000,0.000000,4282.307617,4326.666504,4341.666504,4337.563965,4311.153809,4311.538574,4298.461426,4315.384766,4730.641113,4126.025879,4444.102539,4426.538574,4354.615234,4393.077148,6097.000000,2.000000,48.000000,,,,0.000000,4.000000,4.000000,4.000000,4.000000,4.000000,4.000000,4.000000,4.000000,4.000000,4.000000,4.000000,4.000000,4.000000,4.000000,100.000000,,,,,,,,,,,,,,,,
1741771333.380447,1741771333.381339,79.000000,0.000000,4257.307617,4306.666504,4319.743652,4317.179688,4292.179688,4311.666504,4283.205078,4308.589844,4712.948730,4110.000000,4421.282227,4410.769043,4335.384766,4372.948730,6229.000000,2.000000,48.000000,,,,0.000000,4.000000,4.000000,4.000000,4.000000,4.000000,4.000000,4.000000,4.000000,4.000000,4.000000,4.000000,4.000000,4.000000,4.000000,100.000000,,,,,,,,,,,,,,,,
1741771333.388255,1741771333.389147,80.000000,0.000000,4245.897461,4296.922852,4312.948730,4312.179688,4292.948730,4313.717773,4287.179688,4313.205078,4716.025879,4125.769043,4418.333496,4412.563965,4329.487305,4363.589844,6043.000000,2.000000,48.000000,,,,0.000000,4.000000,4.000000,4.000000,4.000000,4.000000,4.000000,4.000000,4.000000,4.000000,4.000000,4.000000,4.000000,4.000000,4.000000,100.000000,,,,,,,,,,,,,,,,
1741771333.396063,1741771333.396855,81.000000,0.000000,4251.282227,4298.717773,4316.666504,4315.128418,4304.487305,4316.922852,4295.000000,4323.077148,4717.436035,4137.692383,4427.307617,4428.205078,4335.641113,4368.589844,4495.000000,2.000000,48.000000,,,,0.000000,4.000000,4.000000,4.000000,4.000000,4.000000,4.000000,4.000000,4.000000,4.000000,4.000000,4.000000,4.000000,4.000000,4.000000,100.000000,,,,,,,,,,,,,,,,
1741771333.403871,1741771333.404763,82.000000,0.000000,4255.769043,4302.307617,4313.461426,4315.641113,4301.410156,4313.717773,4291.282227,4312.563965,4701.410156,4131.922852,4424.871582,4421.922852,4334.102539,4372.179688,6097.000000,2.000000,48.000000,,,,0.000000,4.000000,4.000000,4.000000,4.000000,4.000000,4.000000,4.000000,4.000000,4.000000,4.000000,4.000000,4.000000,4.000000,4.000000,100.000000,,,,,,,,,,,,,,,,
1741771333.411679,1741771333.412571,83.000000,0.000000,4253.974121,4305.384766,4311.666504,4320.384766,4298.333496,4315.256348,4297.563965,4316.666504,4699.743652,4137.179688,4427.948730,4418.205078,4337.051270,4376.922852,6229.000000,2.000000,48.000000,,,,0.000000,4.000000,4.000000,4.000000,4.000000,4.000000,4.000000,4.000000,4.000000,4.000000,4.000000,4.000000,4.000000,4.000000,4.000000,100.000000,,,,,,,,,,,,,,,,
1741771333.419488,1741771333.420480,84.000000,0.000000,4253.333496,4309.871582,4322.563965,4329.743652,4307.692383,4324.743652,4315.256348,4337.051270,4707.820313,4153.333496,4445.256348,4429.615234,4352.820313,4388.846191,6043.000000,2.000000,48.000000,,,,0.000000,4.000000,4.000000,4.000000,4.000000,4.000000,4.000000,4.000000,4.000000,4.000000,4.000000,4.000000,4.000000,4.000000,4.000000,100.000000,,,,,,,,,,,,,,,,
1741771333.427296,1741771333.428288,85.000000,0.000000,4264.102539,4316.538574,4329.615234,4332.563965,4308.077148,4326.153809,4317.692383,4336.025879,4696.794922,4159.615234,4451.666504,4434.487305,4357.948730,4396.282227,4495.000000,2.000000,48.000000,,,,0.000000,4.000000,4.000000,4.000000,4.000000,4.000000,4.000000,4.000000,4.000000,4.000000,4.000000,4.000000,4.000000,4.000000,4.000000,100.000000,,,,,,,,,,,,,,,,
1741771333.435104,1741771333.436096,86.000000,0.000000,4280.384766,4321.153809,4327.948730,4332.563965,4302.051270,4323.461426,4311.922852,4335.512695,4681.538574,4158.461426,4448.717773,4438.717773,4351.538574,4397.051270,6097.000000,2.000000,48.000000,,,,0.000000,4.000000,4.000000,4.000000,4.000000,4.000000,4.000000,4.000000,4.000000,4.000000,4.000000,4.000000,4.000000,4.000000,4.000000,100.000000,,,,,,,,,,,,,,,,
1741771333.442912,1741771333.443804,87.000000,0.000000,4292.307617,4329.358887,4339.487305,4342.692383,4312.436035,4327.051270,4317.563965,4348.717773,4686.410156,4172.692383,4460.897461,4449.230957,4365.128418,4411.794922,6229.000000,2.000000,48.000000,,,,0.000000,4.000000,4.000000,4.000000,4.000000,4.000000,4.000000,4.000000,4.000000,4.000000,4.000000,4.000000,4.000000,4.000000,4.000000,100.000000,,,,,,,,,,,,,,,,
1741771333.450720,1741771333.451712,88.000000,0.000000,4299.230957,4334.615234,4353.205078,4348.205078,4320.641113,4332.563965,4321.922852,4358.846191,4693.974121,4192.820313,4475.769043,4460.641113,4386.025879,4430.000000,6043.000000,2.000000,48.000000,,,,0.000000,4.000000,4.000000,4.000000,4.000000,4.000000,4.000000,4.000000,4.000000,4.000000,4.000000,4.000000,4.000000,4.000000,4.000000,100.000000,,,,,,,,,,,,,,,,
1741771333.458528,1741771333.459521,89.000000,0.000000,4286.410156,4323.974121,4333.717773,4332.820313,4306.794922,4333.205078,4307.051270,4350.256348,4677.563965,4187.051270,4461.153809,4447.948730,4373.461426,4414.358887,4495.000000,2.000000,48.000000,,,,0.000000,4.000000,4.000000,4.000000,4.000000,4.000000,4.000000,4.000000,4.000000,4.000000,4.000000,4.000000,4.000000,4.000000,4.000000,100.000000,,,,,,,,,,,,,,,,
1741771333.466336,1741771333.467429,90.000000,0.000000,4262.948730,4311.025879,4307.948730,4317.179688,4299.102539,4335.512695,4291.538574,4334.615234,4653.077148,4171.794922,4433.589844,4422.820313,4346.666504,4384.230957,6097.000000,2.000000,48.000000,,,,0.000000,4.000000,4.000000,4.000000,4.000000,4.000000,4.000000,4.000000,4.000000,4.000000,4.000000,4.000000,4.000000,4.000000,4.000000,100.000000,1.000000,41.666668,4.000000,4.000000,3.000000,4.000000,4.000000,1.000000,4.000000,4.000000,1.000000,3.000000,4.000000,4.000000,4.000000,3.000000
1741771333.474144,1741771333.475237,91.000000,0.000000,4252.563965,4307.820313,4302.948730,4317.179688,4305.384766,4344.871582,4291.153809,4330.256348,4636.794922,4161.538574,4424.615234,4418.077148,4339.487305,4373.205078,6229.000000,2.000000,48.000000,,,,0.000000,4.000000,4.000000,4.000000,4.000000,4.000000,4.000000,4.000000,4.000000,4.000000,4.000000,4.000000,4.000000,4.000000,4.000000,100.000000,,,,,,,,,,,,,,,,
1741771333.481952,1741771333.483145,92.000000,0.000000,4257.051270,4313.846191,4303.974121,4325.000000,4306.794922,4352.948730,4296.538574,4323.077148,4623.974121,4156.410156,4435.128418,4421.794922,4350.000000,4380.769043,6043.000000,2.000000,48.000000,,,,0.000000,4.000000,4.000000,4.000000,4.000000,4.000000,4.000000,4.000000,4.000000,4.000000,4.000000,4.000000,4.000000,4.000000,4.000000,100.000000,,,,,,,,,,,,,,,,
1741771333.489761,1741771333.490953,93.000000,0.000000,4265.641113,4317.307617,4311.282227,4326.922852,4307.051270,4356.666504,4300.384766,4323.205078,4617.563965,4165.384766,4447.563965,4424.230957,4360.000000,4390.000000,4495.000000,2.000000,48.000000,,,,0.000000,4.000000,4.000000,4.000000,4.000000,4.000000,4.000000,4.000000,4.000000,4.000000,4.000000,4.000000,4.000000,4.000000,4.000000,100.000000,,,,,,,,,,,,,,,,
1741771333.497568,1741771333.498861,94.000000,0.000000,4269.230957,4317.436035,4317.948730,4323.205078,4310.641113,4358.205078,4302.307617,4335.769043,4615.128418,4174.230957,4447.307617,4425.256348,4359.487305,4389.358887,6097.000000,2.000000,48.000000,,,,0.000000,4.000000,4.000000,4.000000,4.000000,4.000000,4.000000,4.000000,4.000000,4.000000,4.000000,4.000000,4.000000,4.000000,4.000000,100.000000,,,,,,,,,,,,,,,,
1741771333.505377,1741771333.506670,95.000000,0.000000,4267.179688,4318.077148,4311.153809,4322.820313,4313.589844,4356.538574,4301.282227,4336.794922,4608.333496,4174.487305,4444.743652,4428.077148,4358.333496,4390.000000,6229.000000,2.000000,48.000000,,,,0.000000,4.000000,4.000000,4.000000,4.000000,4.000000,4.000000,4.000000,4.000000,4.000000,4.000000,4.000000,4.000000,4.000000,4.000000,100.000000,,,,,,,,,,,,,,,,
1741771333.513185,1741771333.514378,96.000000,0.000000,4263.974121,4315.641113,4310.128418,4326.538574,4314.615234,4355.769043,4304.102539,4336.153809,4602.307617,4175.128418,4450.128418,4439.615234,4360.769043,4397.563965,6043.000000,2.000000,48.000000,,,,0.000000,4.000000,4.000000,4.000000,4.000000,4.000000,4.000000,4.000000,4.000000,4.000000,4.000000,4.000000,4.000000,4.000000,4.000000,100.000000,,,,,,,,,,,,,,,,
1741771333.520993,1741771333.522286,97.000000,0.000000,4270.769043,4321.794922,4332.948730,4338.589844,4316.153809,4356.282227,4312.307617,4346.538574,4602.820313,4184.743652,4456.538574,4450.641113,4368.717773,4406.666504,4495.000000,2.000000,48.000000,,,,0.000000,4.000000,4.000000,4.000000,4.000000,4.000000,4.000000,4.000000,4.000000,4.000000,4.000000,4.000000,4.000000,4.000000,4.000000,100.000000,,,,,,,,,,,,,,,,
1741771333.528801,1741771333.530094,98.000000,0.000000,4284.358887,4338.461426,4355.256348,4353.461426,4322.307617,4356.538574,4317.436035,4357.820313,4607.692383,4200.512695,4467.692383,4459.871582,4381.282227,4415.512695,6097.000000,2.000000,48.000000,,,,0.000000,4.000000,4.000000,4.000000,4.000000,4.000000,4.000000,4.000000,4.000000,4.000000,4.000000,4.000000,4.000000,4.000000,4.000000,100.000000,,,,,,,,,,,,,,,,
1741771333.536609,1741771333.537902,99.000000,0.000000,4291.666504,4347.051270,4363.974121,4358.461426,4328.589844,4359.358887,4320.384766,4367.051270,4612.436035,4209.102539,4482.948730,4468.205078,4389.743652,4425.384766,6229.000000,2.000000,48.000000,,,,0.000000,4.000000,4.000000,4.000000,4.000000,4.000000,4.000000,4.000000,4.000000,4.000000,4.000000,4.000000,4.000000,4.000000,4.000000,100.000000,,,,,,,,,,,,,,,,
1741771333.544417,1741771333.545611,100.000000,0.000000,4294.487305,4342.948730,4370.256348,4356.282227,4329.743652,4363.205078,4322.692383,4372.436035,4614.615234,4216.153809,4487.563965,4469.615234,4392.051270,4433.461426,6043.000000,2.000000,48.000000,,,,0.000000,4.000000,4.000000,4.000000,4.000000,4.000000,4.000000,4.000000,4.000000,4.000000,4.000000,4.000000,4.000000,4.000000,4.000000,100.000000,,,,,,,,,,,,,,,,
1741771333.552225,1741771333.553419,101.000000,0.000000,4288.333496,4334.743652,4369.230957,4351.025879,4322.436035,4364.615234,4321.794922,4372.051270,4612.051270,4222.307617,4480.384766,4470.641113,4388.077148,4430.769043,4495.000000,2.000000,48.000000,,,,0.000000,4.000000,4.000000,4.000000,4.000000,4.000000,4.000000,4.000000,4.000000,4.000000,4.000000,4.000000,4.000000,4.000000,4.000000,100.000000,,,,,,,,,,,,,,,,
1741771333.560033,1741771333.561127,102.000000,0.000000,4274.743652,4325.769043,4355.897461,4340.897461,4318.846191,4364.871582,4316.025879,4359.615234,4603.717773,4217.563965,4473.205078,4463.333496,4379.230957,4416.922852,6097.000000,2.000000,48.000000,,,,0.000000,4.000000,4.000000,4.000000,4.000000,4.000000,4.000000,4.000000,4.000000,4.000000,4.000000,4.000000,4.000000,4.000000,4.000000,100.000000,,,,,,,,,,,,,,,,
1741771333.567841,1741771333.568935,103.000000,0.000000,4259.871582,4315.512695,4332.948730,4327.051270,4319.871582,4373.717773,4312.563965,4341.538574,4591.153809,4205.769043,4462.692383,4444.871582,4367.307617,4398.589844,6229.000000,2.000000,48.000000,,,,0.000000,4.000000,4.000000,4.000000,4.000000,4.000000,4.000000,4.000000,4.000000,4.000000,4.000000,4.000000,4.000000,4.000000,4.000000,100.000000,,,,,,,,,,,,,,,,
1741771333.575650,1741771333.576644,104.000000,0.000000,4243.589844,4305.128418,4315.384766,4312.051270,4310.897461,4381.282227,4308.333496,4330.128418,4576.025879,4192.948730,4447.307617,4432.692383,4357.179688,4383.461426,6043.000000,2.000000,48.000000,,,,0.000000,4.000000,4.000000,4.000000,4.000000,4.000000,4.000000,4.000000,4.000000,4.000000,4.000000,4.000000,4.000000,4.000000,4.000000,100.000000,,,,,,,,,,,,,,,,
1741771333.583458,1741771333.584452,105.000000,0.000000,4236.153809,4298.846191,4312.692383,4301.538574,4300.256348,4373.461426,4298.589844,4320.384766,4562.436035,4180.641113,4438.846191,4429.358887,4349.615234,4377.051270,4495.000000,2.000000,48.000000,,,,0.000000,4.000000,4.000000,4.000000,4.000000,4.000000,4.000000,4.000000,4.000000,4.000000,4.000000,4.000000,4.000000,4.000000,4.000000,100.000000,,,,,,,,,,,,,,,,
1741771333.591266,1741771333.592160,106.000000,0.000000,4241.666504,4295.128418,4312.692383,4299.487305,4298.846191,4367.820313,4298.333496,4321.922852,4558.974121,4170.641113,4436.025879,4430.128418,4345.897461,4377.051270,6097.000000,2.000000,48.000000,,,,0.000000,4.000000,4.000000,4.000000,4.000000,4.000000,4.000000,4.000000,4.000000,4.000000,4.000000,4.000000,4.000000,4.000000,4.000000,100.000000,,,,,,,,,,,,,,,,
1741771333.599074,1741771333.599968,107.000000,0.000000,4249.230957,4294.743652,4311.282227,4304.615234,4302.307617,4370.641113,4306.794922,4333.974121,4565.384766,4174.871582,4438.205078,4433.589844,4351.025879,4383.205078,6229.000000,2.000000,48.000000,,,,0.000000,4.000000,4.000000,4.000000,4.000000,4.000000,4.000000,4.000000,4.000000,4.000000,4.000000,4.000000,4.000000,4.000000,4.000000,100.000000,,,,,,,,,,,,,,,,
1741771333.606882,1741771333.607677,108.000000,0.000000,4257.051270,4306.153809,4324.102539,4317.820313,4306.666504,4367.051270,4310.512695,4336.410156,4569.615234,4192.563965,4451.922852,4438.974121,4361.025879,4393.461426,6043.000000,2.000000,48.000000,,,,0.000000,4.000000,4.000000,4.000000,4.000000,4.000000,4.000000,4.000000,4.000000,4.000000,4.000000,4.000000,4.000000,4.000000,4.000000,100.000000,,,,,,,,,,,,,,,,
1741771333.614690,1741771333.615585,109.000000,0.000000,4274.615234,4323.717773,4347.179688,4331.153809,4309.871582,4366.282227,4312.563965,4339.743652,4568.333496,4201.922852,4467.820313,4450.384766,4372.948730,4409.358887,4495.000000,2.000000,48.000000,,,,0.000000,4.000000,4.000000,4.000000,4.000000,4.000000,4.000000,4.000000,4.000000,4.000000,4.000000,4.000000,4.000000,4.000000,4.000000,100.000000,,,,,,,,,,,,,,,,
1741771333.622498,1741771333.623393,110.000000,0.000000,4298.717773,4336.282227,4365.128418,4342.820313,4317.820313,4370.256348,4318.974121,4347.563965,4571.538574,4205.897461,4477.436035,4460.769043,4388.589844,4431.153809,6097.000000,2.000000,48.000000,,,,0.000000,4.000000,4.000000,4.000000,4.000000,4.000000,4.000000,4.000000,4.000000,4.000000,4.000000,4.000000,4.000000,4.000000,4.000000,100.000000,,,,,,,,,,,,,,,,
1741771333.630306,1741771333.631201,111.000000,0.000000,4311.153809,4343.077148,4378.846191,4356.153809,4326.538574,4372.820313,4326.025879,4356.922852,4578.589844,4211.538574,4484.871582,4469.102539,4398.974121,4442.051270,6229.000000,2.000000,48.000000,,,,0.000000,4.000000,4.000000,4.000000,4.000000,4.000000,4.000000,4.000000,4.000000,4.000000,4.000000,4.000000,4.000000,4.000000,4.000000,100.000000,,,,,,,,,,,,,,,,
1741771333.638114,1741771333.638910,112.000000,0.000000,4311.410156,4351.538574,4390.897461,4368.846191,4332.563965,4377.820313,4331.282227,4367.948730,4581.538574,4214.743652,4491.025879,4479.358887,4401.794922,4442.820313,6043.000000,2.000000,48.000000,,,,0.000000,4.000000,4.000000,4.000000,4.000000,4.000000,4.000000,4.000000,4.000000,4.000000,4.000000,4.000000,4.000000,4.000000,4.000000,100.000000,,,,,,,,,,,,,,,,
1741771333.645923,1741771333.646718,113.000000,0.000000,4316.410156,4360.769043,4397.051270,4375.256348,4336.922852,4381.794922,4332.051270,4368.974121,4581.025879,4218.333496,4493.205078,4481.282227,4406.410156,4451.153809,4495.000000,2.000000,48.000000,,,,0.000000,4.000000,4.000000,4.000000,4.000000,4.000000,4.000000,4.000000,4.000000,4.000000,4.000000,4.000000,4.000000,4.000000,4.000000,100.000000,,,,,,,,,,,,,,,,
1741771333.653731,1741771333.654426,114.000000,0.000000,4311.794922,4352.692383,4383.333496,4365.000000,4332.307617,4383.205078,4329.487305,4363.461426,4577.563965,4215.128418,4480.128418,4471.794922,4396.666504,4447.948730,6097.000000,2.000000,48.000000,,,,0.000000,4.000000,4.000000,4.000000,4.000000,4.000000,4.000000,4.000000,4.000000,4.000000,4.000000,4.000000,4.000000,4.000000,4.000000,100.000000,,,,,,,,,,,,,,,,
1741771333.661539,1741771333.662334,115.000000,0.000000,4291.666504,4334.487305,4358.717773,4347.692383,4322.307617,4384.871582,4329.358887,4356.410156,4569.358887,4204.743652,4458.205078,4459.230957,4375.128418,4422.820313,6229.000000,2.000000,48.000000,,,,0.000000,4.000000,4.000000,4.000000,4.000000,4.000000,4.000000,4.000000,4.000000,4.000000,4.000000,4.000000,4.000000,4.000000,4.000000,100.000000,,,,,,,,,,,,,,,,
1741771333.669347,1741771333.670142,116.000000,0.000000,4288.077148,4328.846191,4349.615234,4340.384766,4321.410156,4387.692383,4329.743652,4350.897461,4564.487305,4200.384766,4453.077148,4457.179688,4373.077148,4413.974121,6043.000000,2.000000,48.000000,,,,0.000000,4.000000,4.000000,4.000000,4.000000,4.000000,4.000000,4.000000,4.000000,4.000000,4.000000,4.000000,4.000000,4.000000,4.000000,100.000000,,,,,,,,,,,,,,,,
1741771333.677155,1741771333.678051,117.000000,0.000000,4293.205078,4326.282227,4347.820313,4337.179688,4325.641113,4390.256348,4328.589844,4348.717773,4567.563965,4198.589844,4454.230957,4457.179688,4376.282227,4416.538574,4495.000000,2.000000,48.000000,,,,0.000000,4.000000,4.000000,4.000000,4.000000,4.000000,4.000000,4.000000,4.000000,4.000000,4.000000,4.000000,4.000000,4.000000,4.000000,100.000000,,,,,,,,,,,,,,,,
1741771333.684963,1741771333.685859,118.000000,0.000000,4282.436035,4317.948730,4335.641113,4331.794922,4322.820313,4387.436035,4323.333496,4342.307617,4566.025879,4192.307617,4442.051270,4444.102539,4363.333496,4402.307617,6097.000000,2.000000,48.000000,,,,0.000000,4.000000,4.000000,4.000000,4.000000,4.000000,4.000000,4.000000,4.000000,4.000000,4.000000,4.000000,4.000000,4.000000,4.000000,100.000000,,,,,,,,,,,,,,,,
1741771333.692771,1741771333.693767,119.000000,0.000000,4271.410156,4314.615234,4324.487305,4330.512695,4314.615234,4383.205078,4316.538574,4341.410156,4562.948730,4186.025879,4435.128418,4439.102539,4358.846191,4391.922852,6229.000000,2.000000,48.000000,,,,0.000000,4.000000,4.000000,4.000000,4.000000,4.000000,4.000000,4.000000,4.000000,4.000000,4.000000,4.000000,4.000000,4.000000,4.000000,100.000000,,,,,,,,,,,,,,,,
1741771333.700579,1741771333.701575,120.000000,0.000000,4272.820313,4315.256348,4326.666504,4330.512695,4307.563965,4377.436035,4310.128418,4345.256348,4570.641113,4189.358887,4441.538574,4440.897461,4367.692383,4396.538574,6043.000000,2.000000,48.000000,,,,0.000000,4.000000,4.000000,4.000000,4.000000,4.000000,4.000000,4.000000,4.000000,4.000000,4.000000,4.000000,4.000000,4.000000,4.000000,100.000000,,,,,,,,,,,,,,,,
1741771333.708387,1741771333.709483,121.000000,0.000000,4278.717773,4320.384766,4339.230957,4336.153809,4313.333496,4377.563965,4311.666504,4346.922852,4580.384766,4199.871582,4447.692383,4444.102539,4373.846191,4408.333496,4495.000000,2.000000,48.000000,,,,0.000000,4.000000,4.000000,4.000000,4.000000,4.000000,4.000000,4.000000,4.000000,4.000000,4.000000,4.000000,4.000000,4.000000,4.000000,100.000000,,,,,,,,,,,,,,,,
1741771333.716195,1741771333.717291,122.000000,0.000000,4281.282227,4328.974121,4348.205078,4345.641113,4327.307617,4385.256348,4319.358887,4347.179688,4579.743652,4197.820313,4449.230957,4453.717773,4376.025879,4417.563965,6097.000000,2.000000,48.000000,,,,0.000000,4.000000,4.000000,4.000000,4.000000,4.000000,4.000000,4.000000,4.000000,4.000000,4.000000,4.000000,4.000000,4.000000,4.000000,100.000000,,,,,,,,,,,,,,,,
1741771333.724003,1741771333.725000,123.000000,0.000000,4280.128418,4332.948730,4347.179688,4349.871582,4329.487305,4384.230957,4320.384766,4345.128418,4572.692383,4191.282227,4450.256348,4455.512695,4379.743652,4418.077148,6229.000000,2.000000,48.000000,,,,0.000000,4.000000,4.000000,4.000000,4.000000,4.000000,4.000000,4.000000,4.000000,4.000000,4.000000,4.000000,4.000000,4.000000,4.000000,100.000000,,,,,,,,,,,,,,,,
1741771333.731812,1741771333.732908,124.000000,0.000000,4290.769043,4339.487305,4354.102539,4357.436035,4327.436035,4381.025879,4324.487305,4351.025879,4570.641113,4198.461426,4453.846191,4461.666504,4385.512695,4426.666504,6043.000000,2.000000,48.000000,,,,0.000000,4.000000,4.000000,4.000000,4.000000,4.000000,4.000000,4.000000,4.000000,4.000000,4.000000,4.000000,4.000000,4.000000,4.000000,100.000000,,,,,,,,,,,,,,,,
1741771333.739620,1741771333.740716,125.000000,0.000000,4310.641113,4349.743652,4365.000000,4365.641113,4332.051270,4382.307617,4327.563965,4355.769043,4568.846191,4203.974121,4458.974121,4473.589844,4391.153809,4440.641113,4495.000000,2.000000,48.000000,,,,0.000000,4.000000,4.000000,4.000000,4.000000,4.000000,4.000000,4.000000,4.000000,4.000000,4.000000,4.000000,4.000000,4.000000,4.000000,100.000000,,,,,,,,,,,,,,,,
1741771333.747428,1741771333.748524,126.000000,0.000000,4310.769043,4350.384766,4360.256348,4361.922852,4332.179688,4382.948730,4317.051270,4349.102539,4560.128418,4203.333496,4461.153809,4470.384766,4391.666504,4437.307617,6097.000000,2.000000,48.000000,,,,0.000000,4.000000,4.000000,4.000000,4.000000,4.000000,4.000000,4.000000,4.000000,4.000000,4.000000,4.000000,4.000000,4.000000,4.000000,100.000000,,,,,,,,,,,,,,,,
1741771333.755236,1741771333.756233,127.000000,0.000000,4299.487305,4341.538574,4349.230957,4351.153809,4322.179688,4381.794922,4308.077148,4346.922852,4546.666504,4205.641113,4459.358887,4461.025879,4387.948730,4426.025879,48.000000,2.000000,48.000000,,,,0.000000,4.000000,4.000000,4.000000,4.000000,4.000000,4.000000,4.000000,4.000000,4.000000,4.000000,4.000000,4.000000,4.000000,4.000000,100.000000,,,,,,,,,,,,,,,,
1741771333.763044,1741771333.764041,0.000000,0.000000,4288.461426,4331.922852,4335.641113,4338.461426,4312.307617,4379.358887,4301.794922,4342.820313,4533.333496,4207.307617,4444.871582,4454.230957,4382.820313,4421.410156,5823.000000,2.000000,48.000000,,,,0.000000,4.000000,4.000000,4.000000,4.000000,4.000000,4.000000,4.000000,4.000000,4.000000,4.000000,4.000000,4.000000,4.000000,4.000000,100.000000,,,,,,,,,,,,,,,,
1741771333.770852,1741771333.771749,1.000000,0.000000,4273.974121,4324.230957,4317.179688,4327.948730,4306.153809,4383.461426,4295.256348,4337.436035,4527.179688,4206.282227,4430.512695,4447.436035,4371.922852,4415.641113,5676.000000,2.000000,48.000000,,,,0.000000,4.000000,4.000000,4.000000,4.000000,4.000000,4.000000,4.000000,4.000000,4.000000,4.000000,4.000000,4.000000,4.000000,4.000000,100.000000,,,,,,,,,,,,,,,,
1741771333.778660,1741771333.779557,2.000000,0.000000,4270.641113,4321.282227,4310.384766,4328.589844,4303.717773,4392.436035,4296.922852,4341.153809,4522.563965,4210.256348,4434.487305,4444.487305,4365.128418,4410.000000,5594.000000,2.000000,48.000000,,,,0.000000,4.000000,4.000000,4.000000,4.000000,4.000000,4.000000,4.000000,4.000000,4.000000,4.000000,4.000000,4.000000,4.000000,4.000000,100.000000,,,,,,,,,,,,,,,,
1741771333.786468,1741771333.787266,3.000000,0.000000,4279.743652,4324.230957,4315.384766,4333.077148,4305.256348,4394.487305,4305.897461,4344.871582,4513.589844,4221.922852,4444.743652,4451.922852,4377.436035,4417.948730,5500.000000,2.000000,48.000000,,,,0.000000,4.000000,4.000000,4.000000,4.000000,4.000000,4.000000,4.000000,4.000000,4.000000,4.000000,4.000000,4.000000,4.000000,4.000000,100.000000,,,,,,,,,,,,,,,,
1741771333.794276,1741771333.795074,4.000000,0.000000,4281.922852,4327.563965,4319.615234,4335.256348,4308.333496,4397.051270,4314.230957,4349.358887,4507.820313,4230.128418,4448.205078,4463.077148,4392.436035,4429.230957,5464.000000,2.000000,48.000000,,,,0.000000,4.000000,4.000000,4.000000,4.000000,4.000000,4.000000,4.000000,4.000000,4.000000,4.000000,4.000000,4.000000,4.000000,4.000000,100.000000,,,,,,,,,,,,,,,,
1741771333.802084,1741771333.802782,5.000000,0.000000,4282.307617,4327.051270,4329.230957,4342.436035,4313.589844,4404.102539,4319.487305,4355.897461,4502.307617,4236.282227,4448.461426,4461.922852,4393.205078,4431.666504,3633.000000,2.000000,48.000000,,,,0.000000,4.000000,4.000000,4.000000,4.000000,4.000000,4.000000,4.000000,4.000000,4.000000,4.000000,4.000000,4.000000,4.000000,4.000000,100.000000,,,,,,,,,,,,,,,,
1741771333.809893,1741771333.810590,6.000000,0.000000,4289.743652,4324.615234,4339.871582,4346.922852,4317.563965,4406.410156,4322.692383,4359.871582,4491.153809,4241.666504,4445.512695,4458.333496,4388.717773,4431.153809,5445.000000,2.000000,48.000000,,,,0.000000,4.000000,4.000000,4.000000,4.000000,4.000000,4.000000,4.000000,4.000000,4.000000,4.000000,4.000000,4.000000,4.000000,4.000000,100.000000,,,,,,,,,,,,,,,,
1741771333.817701,1741771333.818299,7.000000,0.000000,4293.077148,4327.051270,4342.307617,4347.051270,4317.563965,4406.666504,4322.563965,4363.205078,4481.666504,4239.230957,4444.487305,4469.871582,4389.358887,4431.538574,3789.000000,2.000000,48.000000,,,,0.000000,4.000000,4.000000,4.000000,4.000000,4.000000,4.000000,4.000000,4.000000,4.000000,4.000000,4.000000,4.000000,4.000000,4.000000,100.000000,,,,,,,,,,,,,,,,
1741771333.825509,1741771333.826207,8.000000,0.000000,4295.897461,4335.897461,4349.615234,4356.922852,4323.589844,4410.384766,4324.102539,4354.871582,4477.179688,4242.948730,4454.871582,4474.102539,4396.538574,4434.743652,4190.000000,2.000000,48.000000,,,,0.000000,4.000000,4.000000,4.000000,4.000000,4.000000,4.000000,4.000000,4.000000,4.000000,4.000000,4.000000,4.000000,4.000000,4.000000,100.000000,,,,,,,,,,,,,,,,
1741771333.833317,1741771333.834015,9.000000,0.000000,4298.077148,4338.205078,4354.102539,4361.282227,4328.974121,4416.666504,4326.282227,4346.282227,4472.179688,4247.051270,4461.794922,4468.846191,4398.846191,4430.897461,5445.000000,2.000000,48.000000,,,,0.000000,4.000000,4.000000,4.000000,4.000000,4.000000,4.000000,4.000000,4.000000,4.000000,4.000000,4.000000,4.000000,4.000000,4.000000,100.000000,,,,,,,,,,,,,,,,
1741771333.841125,1741771333.841923,10.000000,0.000000,4291.666504,4330.128418,4340.128418,4348.461426,4322.948730,4418.589844,4323.333496,4355.769043,4465.384766,4241.922852,4451.922852,4470.641113,4392.051270,4420.384766,6085.000000,2.000000,48.000000,,,,0.000000,4.000000,4.000000,4.000000,4.000000,4.000000,4.000000,4.000000,4.000000,4.000000,4.000000,4.000000,4.000000,4.000000,4.000000,100.000000,,,,,,,,,,,,,,,,
1741771333.848933,1741771333.849731,11.000000,0.000000,4294.102539,4330.000000,4333.077148,4346.794922,4323.461426,4422.563965,4331.538574,4361.922852,4462.692383,4248.205078,4445.000000,4464.230957,4393.717773,4419.743652,6235.000000,2.000000,48.000000,,,,0.000000,4.000000,4.000000,4.000000,4.000000,4.000000,4.000000,4.000000,4.000000,4.000000,4.000000,4.000000,4.000000,4.000000,4.000000,100.000000,,,,,,,,,,,,,,,,
1741771333.856741,1741771333.857539,12.000000,0.000000,4297.051270,4333.077148,4339.615234,4352.948730,4330.000000,4429.102539,4342.179688,4359.230957,4461.282227,4258.205078,4445.256348,4457.563965,4395.128418,4421.794922,6042.000000,2.000000,48.000000,,,,0.000000,4.000000,4.000000,4.000000,4.000000,4.000000,4.000000,4.000000,4.000000,4.000000,4.000000,4.000000,4.000000,4.000000,4.000000,100.000000,,,,,,,,,,,,,,,,
1741771333.864549,1741771333.865248,13.000000,0.000000,4280.641113,4321.025879,4336.153809,4343.974121,4323.077148,4425.256348,4333.717773,4350.384766,4448.461426,4250.769043,4436.666504,4452.307617,4382.436035,4411.025879,4509.000000,2.000000,48.000000,,,,0.000000,4.000000,4.000000,4.000000,4.000000,4.000000,4.000000,4.000000,4.000000,4.000000,4.000000,4.000000,4.000000,4.000000,4.000000,100.000000,,,,,,,,,,,,,,,,
1741771333.872357,1741771333.873156,14.000000,0.000000,4274.358887,4309.615234,4327.436035,4332.436035,4313.333496,4420.128418,4321.153809,4341.282227,4428.846191,4239.358887,4428.077148,4447.692383,4376.538574,4404.102539,6085.000000,2.000000,48.000000,,,,0.000000,4.000000,4.000000,4.000000,4.000000,4.000000,4.000000,4.000000,4.000000,4.000000,4.000000,4.000000,4.000000,4.000000,4.000000,100.000000,,,,,,,,,,,,,,,,
1741771333.880165,1741771333.880964,15.000000,0.000000,4291.538574,4320.256348,4331.794922,4338.333496,4313.717773,4421.025879,4322.692383,4346.153809,4419.102539,4245.512695,4436.922852,4460.384766,4388.846191,4417.436035,6235.000000,2.000000,48.000000,,,,0.000000,4.000000,4.000000,4.000000,4.000000,4.000000,4.000000,4.000000,4.000000,4.000000,4.000000,4.000000,4.000000,4.000000,4.000000,100.000000,,,,,,,,,,,,,,,,
1741771333.887974,1741771333.888872,16.000000,0.000000,4300.641113,4333.589844,4343.974121,4351.538574,4317.179688,4423.333496,4325.897461,4348.846191,4416.153809,4256.410156,4450.256348,4469.487305,4397.692383,4427.948730,0.000000,2.000000,48.000000,,,,0.000000,4.000000,4.000000,4.000000,4.000000,4.000000,4.000000,4.000000,4.000000,4.000000,4.000000,4.000000,4.000000,4.000000,4.000000,100.000000,,,,,,,,,,,,,,,,
1741771333.895782,1741771333.896680,17.000000,0.000000,4296.282227,4330.641113,4348.077148,4352.563965,4317.436035,4423.974121,4318.974121,4346.282227,4408.333496,4254.487305,4450.769043,4466.153809,4392.051270,4422.948730,0.000000,2.000000,48.000000,,,,0.000000,4.000000,4.000000,4.000000,4.000000,4.000000,4.000000,4.000000,4.000000,4.000000,4.000000,4.000000,4.000000,4.000000,4.000000,100.000000,,,,,,,,,,,,,,,,
1741771333.903590,1741771333.904489,18.000000,0.000000,4300.128418,4328.205078,4351.025879,4350.384766,4321.666504,4421.153809,4311.666504,4341.538574,4395.512695,4252.820313,4447.692383,4461.153809,4387.051270,4421.538574,0.000000,2.000000,48.000000,,,,0.000000,4.000000,4.000000,4.000000,4.000000,4.000000,4.000000,4.000000,4.000000,4.000000,4.000000,4.000000,4.000000,4.000000,4.000000,100.000000,,,,,,,,,,,,,,,,
1741771333.911398,1741771333.912297,19.000000,0.000000,4313.846191,4339.743652,4363.974121,4361.410156,4329.230957,4421.410156,4312.948730,4345.256348,4387.692383,4257.948730,4458.461426,4468.717773,4396.538574,4435.641113,0.000000,2.000000,48.000000,,,,0.000000,4.000000,4.000000,4.000000,4.000000,4.000000,4.000000,4.000000,4.000000,4.000000,4.000000,4.000000,4.000000,4.000000,4.000000,100.000000,,,,,,,,,,,,,,,,
1741771333.919206,1741771333.920005,20.000000,0.000000,4322.948730,4351.282227,4379.743652,4377.692383,4335.769043,4425.512695,4318.717773,4357.563965,4392.436035,4269.358887,4475.897461,4485.128418,4412.948730,4452.436035,0.000000,2.000000,48.000000,,,,0.000000,4.000000,4.000000,4.000000,4.000000,4.000000,4.000000,4.000000,4.000000,4.000000,4.000000,4.000000,4.000000,4.000000,4.000000,100.000000,,,,,,,,,,,,,,,,
1741771333.927014,1741771333.927813,21.000000,0.000000,4316.153809,4344.743652,4376.666504,4372.563965,4334.743652,4425.897461,4315.641113,4350.641113,4391.025879,4275.897461,4467.820313,4477.179688,4405.769043,4440.641113,0.000000,2.000000,48.000000,,,,0.000000,4.000000,4.000000,4.000000,4.000000,4.000000,4.000000,4.000000,4.000000,4.000000,4.000000,4.000000,4.000000,4.000000,4.000000,100.000000,,,,,,,,,,,,,,,,
1741771333.934822,1741771333.935522,22.000000,0.000000,4300.000000,4325.641113,4352.820313,4356.153809,4324.871582,4421.794922,4303.077148,4336.922852,4376.282227,4263.077148,4442.307617,4453.461426,4383.974121,4415.512695,0.000000,2.000000,48.000000,,,,0.000000,4.000000,4.000000,4.000000,4.000000,4.000000,4.000000,4.000000,4.000000,4.000000,4.000000,4.000000,4.000000,4.000000,4.000000,100.000000,,,,,,,,,,,,,,,,
1741771333.942630,1741771333.943430,23.000000,0.000000,4297.820313,4319.487305,4338.205078,4356.025879,4321.794922,4424.487305,4301.025879,4334.487305,4369.871582,4256.538574,4435.769043,4449.358887,4381.282227,4411.282227,0.000000,2.000000,48.000000,,,,0.000000,4.000000,4.000000,4.000000,4.000000,4.000000,4.000000,4.000000,4.000000,4.000000,4.000000,4.000000,4.000000,4.000000,4.000000,100.000000,,,,,,,,,,,,,,,,
1741771333.950438,1741771333.951238,24.000000,0.000000,4296.153809,4322.563965,4336.282227,4356.025879,4323.717773,4435.128418,4314.615234,4337.051270,4366.282227,4260.128418,4434.871582,4453.974121,4381.153809,4409.230957,0.000000,2.000000,48.000000,,,,0.000000,4.000000,4.000000,4.000000,4.000000,4.000000,4.000000,4.000000,4.000000,4.000000,4.000000,4.000000,4.000000,4.000000,4.000000,100.000000,,,,,,,,,,,,,,,,
1741771333.958246,1741771333.959046,25.000000,0.000000,4283.205078,4316.794922,4339.230957,4348.974121,4322.436035,4439.871582,4329.230957,4338.589844,4353.717773,4255.256348,4426.794922,4447.692383,4374.358887,4403.205078,0.000000,2.000000,48.000000,,,,0.000000,4.000000,4.000000,4.000000,4.000000,4.000000,4.000000,4.000000,4.000000,4.000000,4.000000,4.000000,4.000000,4.000000,4.000000,100.000000,,,,,,,,,,,,,,,,
1741771333.966055,1741771333.966754,26.000000,0.000000,4280.256348,4308.717773,4345.897461,4347.051270,4319.487305,4435.897461,4334.102539,4338.846191,4343.717773,4254.743652,4426.538574,4446.282227,4375.384766,4404.102539,0.000000,2.000000,48.000000,,,,0.000000,4.000000,4.000000,4.000000,4.000000,4.000000,4.000000,4.000000,4.000000,4.000000,4.000000,4.000000,4.000000,4.000000,4.000000,100.000000,1.000000,41.666668,4.000000,4.000000,3.000000,4.000000,4.000000,1.000000,4.000000,4.000000,1.000000,3.000000,4.000000,4.000000,4.000000,3.000000
1741771333.973863,1741771333.974663,27.000000,0.000000,4285.128418,4308.589844,4345.256348,4343.589844,4316.922852,4435.128418,4333.333496,4342.436035,4341.282227,4256.025879,4425.512695,4452.307617,4377.948730,4401.922852,0.000000,2.000000,48.000000,,,,0.000000,4.000000,4.000000,4.000000,4.000000,4.000000,4.000000,4.000000,4.000000,4.000000,4.000000,4.000000,4.000000,4.000000,4.000000,100.000000,,,,,,,,,,,,,,,,
1741771333.981671,1741771333.982571,28.000000,0.000000,4295.512695,4319.871582,4341.153809,4344.102539,4319.871582,4432.948730,4326.025879,4337.820313,4326.666504,4256.922852,4422.948730,4449.487305,4382.051270,4410.256348,0.000000,2.000000,48.000000,,,,0.000000,4.000000,4.000000,4.000000,4.000000,4.000000,4.000000,4.000000,4.000000,4.000000,4.000000,4.000000,4.000000,4.000000,4.000000,100.000000,,,,,,,,,,,,,,,,
1741771333.989479,1741771333.990379,29.000000,0.000000,4314.487305,4336.666504,4354.102539,4362.436035,4325.384766,4430.897461,4322.820313,4333.974121,4294.358887,4273.461426,4431.410156,4454.230957,4393.461426,4433.205078,0.000000,2.000000,48.000000,,,,0.000000,4.000000,4.000000,4.000000,4.000000,4.000000,4.000000,4.000000,4.000000,4.000000,4.000000,4.000000,4.000000,4.000000,4.000000,100.000000,,,,,,,,,,,,,,,,
1741771333.997287,1741771333.998187,30.000000,0.000000,4323.461426,4341.410156,4373.589844,4376.666504,4330.128418,4433.717773,4329.230957,4343.333496,4267.948730,4295.000000,4446.794922,4470.128418,4403.461426,4440.512695,0.000000,2.000000,48.000000,,,,0.000000,4.000000,4.000000,4.000000,4.000000,4.000000,4.000000,4.000000,4.000000,4.000000,4.000000,4.000000,4.000000,4.000000,4.000000,100.000000,,,,,,,,,,,,,,,,
1741771334.005095,1741771334.005995,31.000000,0.000000,4317.563965,4336.153809,4372.692383,4370.256348,4328.333496,4429.358887,4320.769043,4348.205078,4264.358887,4303.846191,4456.153809,4472.307617,4407.692383,4437.179688,0.000000,2.000000,48.000000,,,,0.000000,4.000000,4.000000,4.000000,4.000000,4.000000,4.000000,4.000000,4.000000,4.000000,4.000000,4.000000,4.000000,4.000000,4.000000,100.000000,,,,,,,,,,,,,,,,
1741771334.012903,1741771334.013704,32.000000,0.000000,4323.974121,4337.307617,4368.974121,4368.717773,4320.128418,4428.205078,4312.563965,4351.666504,4269.615234,4307.307617,4459.743652,4470.128418,4412.563965,4446.922852,0.000000,2.000000,48.000000,,,,0.000000,4.000000,4.000000,4.000000,4.000000,4.000000,4.000000,4.000000,4.000000,4.000000,4.000000,4.000000,4.000000,4.000000,4.000000,100.000000,,,,,,,,,,,,,,,,
1741771334.020711,1741771334.021612,33.000000,0.000000,4335.128418,4341.410156,4380.256348,4378.461426,4328.077148,4438.205078,4327.051270,4356.282227,4267.948730,4316.282227,4461.922852,4469.615234,4415.384766,4452.692383,0.000000,2.000000,48.000000,,,,0.000000,4.000000,4.000000,4.000000,4.000000,4.000000,4.000000,4.000000,4.000000,4.000000,4.000000,4.000000,4.000000,4.000000,4.000000,100.000000,,,,,,,,,,,,,,,,
1741771334.028519,1741771334.029420,34.000000,0.000000,4322.820313,4335.128418,4379.230957,4376.666504,4345.384766,4441.794922,4333.846191,4352.948730,4262.307617,4317.436035,4458.589844,4460.128418,4410.384766,4439.871582,0.000000,2.000000,48.000000,,,,0.000000,4.000000,4.000000,4.000000,4.000000,4.000000,4.000000,4.000000,4.000000,4.000000,4.000000,4.000000,4.000000,4.000000,4.000000,100.000000,,,,,,,,,,,,,,,,
1741771334.036327,1741771334.037328,35.000000,0.000000,4309.230957,4327.692383,4353.717773,4367.692383,4338.205078,4440.512695,4321.538574,4346.922852,4253.717773,4303.205078,4444.102539,4450.384766,4398.205078,4427.179688,0.000000,2.000000,48.000000,,,,0.000000,4.000000,4.000000,4.000000,4.000000,4.000000,4.000000,4.000000,4.000000,4.000000,4.000000,4.000000,4.000000,4.000000,4.000000,100.000000,,,,,,,,,,,,,,,,
1741771334.044135,1741771334.045136,36.000000,0.000000,4304.871582,4323.461426,4333.461426,4361.282227,4322.692383,4442.820313,4319.615234,4341.282227,4245.000000,4290.384766,4426.794922,4440.256348,4380.641113,4415.384766,0.000000,2.000000,48.000000,,,,0.000000,4.000000,4.000000,4.000000,4.000000,4.000000,4.000000,4.000000,4.000000,4.000000,4.000000,4.000000,4.000000,4.000000,4.000000,100.000000,,,,,,,,,,,,,,,,
1741771334.051944,1741771334.053044,37.000000,0.000000,4292.692383,4310.000000,4333.846191,4348.717773,4322.692383,4447.820313,4332.307617,4342.307617,4242.307617,4287.692383,4422.692383,4432.692383,4369.743652,4396.794922,0.000000,2.000000,48.000000,,,,0.000000,4.000000,4.000000,4.000000,4.000000,4.000000,4.000000,4.000000,4.000000,4.000000,4.000000,4.000000,4.000000,4.000000,4.000000,100.000000,,,,,,,,,,,,,,,,
1741771334.059752,1741771334.060853,38.000000,0.000000,4292.051270,4305.641113,4341.153809,4342.051270,4323.974121,4449.615234,4337.307617,4345.256348,4239.615234,4293.333496,4426.538574,4436.025879,4371.025879,4391.922852,0.000000,2.000000,48.000000,,,,0.000000,4.000000,4.000000,4.000000,4.000000,4.000000,4.000000,4.000000,4.000000,4.000000,4.000000,4.000000,4.000000,4.000000,4.000000,100.000000,,,,,,,,,,,,,,,,
1741771334.067560,1741771334.068761,39.000000,0.000000,4306.794922,4321.025879,4348.205078,4353.333496,4320.128418,4449.230957,4338.589844,4343.846191,4233.974121,4300.128418,4425.384766,4441.794922,4375.256348,4405.512695,0.000000,2.000000,48.000000,,,,0.000000,4.000000,4.000000,4.000000,4.000000,4.000000,4.000000,4.000000,4.000000,4.000000,4.000000,4.000000,4.000000,4.000000,4.000000,100.000000,,,,,,,,,,,,,,,,
1741771334.075368,1741771334.076569,40.000000,0.000000,4313.589844,4329.102539,4351.922852,4365.000000,4324.871582,4452.051270,4344.487305,4347.948730,4233.205078,4302.179688,4425.000000,4441.410156,4377.692383,4416.025879,0.000000,2.000000,48.000000,,,,0.000000,4.000000,4.000000,4.000000,4.000000,4.000000,4.000000,4.000000,4.000000,4.000000,4.000000,4.000000,4.000000,4.000000,4.000000,100.000000,,,,,,,,,,,,,,,,
1741771334.083176,1741771334.084277,41.000000,0.000000,4319.358887,4329.102539,4358.205078,4370.769043,4334.871582,4456.153809,4342.436035,4353.717773,4236.538574,4305.384766,4429.871582,4440.512695,4380.384766,4418.974121,0.000000,2.000000,48.000000,,,,0.000000,4.000000,4.000000,4.000000,4.000000,4.000000,4.000000,4.000000,4.000000,4.000000,4.000000,4.000000,4.000000,4.000000,4.000000,100.000000,,,,,,,,,,,,,,,,
1741771334.090984,1741771334.092085,42.000000,0.000000,4320.769043,4333.717773,4365.256348,4373.846191,4334.358887,4460.769043,4332.436035,4351.410156,4231.410156,4306.153809,4433.205078,4447.436035,4380.128418,4419.102539,0.000000,2.000000,48.000000,,,,0.000000,4.000000,4.000000,4.000000,4.000000,4.000000,4.000000,4.000000,4.000000,4.000000,4.000000,4.000000,4.000000,4.000000,4.000000,100.000000,,,,,,,,,,,,,,,,
1741771334.098792,1741771334.099794,43.000000,0.000000,4315.769043,4335.897461,4367.563965,4371.666504,4329.743652,4457.051270,4326.666504,4344.743652,4224.358887,4307.179688,4440.384766,4452.436035,4383.461426,4423.333496,0.000000,2.000000,48.000000,,,,0.000000,4.000000,4.000000,4.000000,4.000000,4.000000,4.000000,4.000000,4.000000,4.000000,4.000000,4.000000,4.000000,4.000000,4.000000,100.000000,,,,,,,,,,,,,,,,
1741771334.106600,1741771334.107602,44.000000,0.000000,4326.153809,4335.897461,4371.410156,4372.051270,4331.410156,4451.922852,4331.538574,4347.563965,4229.871582,4320.769043,4457.307617,4451.922852,4396.666504,4438.717773,0.000000,2.000000,48.000000,,,,0.000000,4.000000,4.000000,4.000000,4.000000,4.000000,4.000000,4.000000,4.000000,4.000000,4.000000,4.000000,4.000000,4.000000,4.000000,100.000000,,,,,,,,,,,,,,,,
1741771334.114408,1741771334.115310,45.000000,0.000000,4335.641113,4340.641113,4376.538574,4376.282227,4333.077148,4459.487305,4342.563965,4357.563965,4237.179688,4330.384766,4465.641113,4455.256348,4403.077148,4449.102539,0.000000,2.000000,48.000000,,,,0.000000,4.000000,4.000000,4.000000,4.000000,4.000000,4.000000,4.000000,4.000000,4.000000,4.000000,4.000000,4.000000,4.000000,4.000000,100.000000,,,,,,,,,,,,,,,,
1741771334.122217,1741771334.123118,46.000000,0.000000,4325.256348,4340.128418,4370.512695,4370.897461,4326.794922,4462.307617,4340.128418,4349.102539,4225.384766,4318.461426,4450.897461,4450.000000,4395.128418,4439.230957,0.000000,2.000000,48.000000,,,,0.000000,4.000000,4.000000,4.000000,4.000000,4.000000,4.000000,4.000000,4.000000,4.000000,4.000000,4.000000,4.000000,4.000000,4.000000,100.000000,,,,,,,,,,,,,,,,
1741771334.130025,1741771334.130827,47.000000,0.000000,4318.205078,4330.512695,4357.307617,4360.128418,4320.641113,4458.589844,4329.230957,4340.128418,4216.153809,4301.666504,4437.179688,4440.512695,4387.436035,4426.410156,0.000000,2.000000,48.000000,,,,0.000000,4.000000,4.000000,4.000000,4.000000,4.000000,4.000000,4.000000,4.000000,4.000000,4.000000,4.000000,4.000000,4.000000,4.000000,100.000000,,,,,,,,,,,,,,,,
1741771334.137833,1741771334.138635,48.000000,0.000000,4316.538574,4327.563965,4355.384766,4357.051270,4321.410156,4459.871582,4331.410156,4349.743652,4225.512695,4301.410156,4440.384766,4440.512695,4384.615234,4423.589844,0.000000,2.000000,48.000000,,,,0.000000,4.000000,4.000000,4.000000,4.000000,4.000000,4.000000,4.000000,4.000000,4.000000,4.000000,4.000000,4.000000,4.000000,4.000000,100.000000,,,,,,,,,,,,,,,,
1741771334.145641,1741771334.146343,49.000000,0.000000,4310.000000,4330.000000,4353.077148,4355.000000,4319.615234,4462.948730,4334.615234,4348.974121,4225.128418,4304.743652,4438.846191,4440.641113,4381.153809,4423.333496,0.000000,2.000000,48.000000,,,,0.000000,4.000000,4.000000,4.000000,4.000000,4.000000,4.000000,4.000000,4.000000,4.000000,4.000000,4.000000,4.000000,4.000000,4.000000,100.000000,,,,,,,,,,,,,,,,
1741771334.153449,1741771334.154251,50.000000,0.000000,4305.128418,4327.051270,4343.205078,4347.820313,4312.563965,4467.307617,4333.077148,4338.461426,4213.461426,4297.692383,4425.769043,4440.000000,4373.077148,4419.615234,0.000000,2.000000,48.000000,,,,0.000000,4.000000,4.000000,4.000000,4.000000,4.000000,4.000000,4.000000,4.000000,4.000000,4.000000,4.000000,4.000000,4.000000,4.000000,100.000000,,,,,,,,,,,,,,,,
1741771334.161257,1741771334.162060,51.000000,0.000000,4301.410156,4326.666504,4347.179688,4350.897461,4316.153809,4473.717773,4340.897461,4339.230957,4213.333496,4301.922852,4422.436035,4441.538574,4369.487305,4416.794922,0.000000,2.000000,48.000000,,,,0.000000,4.000000,4.000000,4.000000,4.000000,4.000000,4.000000,4.000000,4.000000,4.000000,4.000000,4.000000,4.000000,4.000000,4.000000,100.000000,,,,,,,,,,,,,,,,
1741771334.169065,1741771334.169968,52.000000,0.000000,4303.461426,4330.000000,4357.563965,4361.538574,4328.846191,4479.615234,4348.333496,4347.948730,4219.487305,4317.563965,4435.000000,4443.717773,4376.666504,4417.820313,0.000000,2.000000,48.000000,,,,0.000000,4.000000,4.000000,4.000000,4.000000,4.000000,4.000000,4.000000,4.000000,4.000000,4.000000,4.000000,4.000000,4.000000,4.000000,100.000000,,,,,,,,,,,,,,,,
1741771334.176873,1741771334.177776,53.000000,0.000000,4311.922852,4323.205078,4356.794922,4361.282227,4330.769043,4481.666504,4343.589844,4350.384766,4215.000000,4321.666504,4441.282227,4440.512695,4378.846191,4412.307617,0.000000,2.000000,48.000000,,,,0.000000,4.000000,4.000000,4.000000,4.000000,4.000000,4.000000,4.000000,4.000000,4.000000,4.000000,4.000000,4.000000,4.000000,4.000000,100.000000,,,,,,,,,,,,,,,,
1741771334.184681,1741771334.185684,54.000000,0.000000,4312.692383,4322.307617,4359.487305,4363.333496,4334.102539,4485.000000,4340.384766,4344.871582,4210.128418,4322.436035,4437.051270,4440.128418,4375.000000,4407.051270,0.000000,2.000000,48.000000,,,,0.000000,4.000000,4.000000,4.000000,4.000000,4.000000,4.000000,4.000000,4.000000,4.000000,4.000000,4.000000,4.000000,4.000000,4.000000,100.000000,,,,,,,,,,,,,,,,
1741771334.192490,1741771334.193492,55.000000,0.000000,4309.487305,4334.743652,4370.000000,4373.461426,4343.589844,4493.077148,4345.897461,4343.333496,4211.410156,4323.077148,4437.948730,4449.230957,4379.230957,4410.384766,0.000000,2.000000,48.000000,,,,0.000000,4.000000,4.000000,4.000000,4.000000,4.000000,4.000000,4.000000,4.000000,4.000000,4.000000,4.000000,4.000000,4.000000,4.000000,100.000000,,,,,,,,,,,,,,,,
1741771334.200297,1741771334.201400,56.000000,0.000000,4326.922852,4342.179688,4374.102539,4378.333496,4342.692383,4497.179688,4355.641113,4348.589844,4209.487305,4322.563965,4448.333496,4450.897461,4390.128418,4415.897461,0.000000,2.000000,48.000000,,,,0.000000,4.000000,4.000000,4.000000,4.000000,4.000000,4.000000,4.000000,4.000000,4.000000,4.000000,4.000000,4.000000,4.000000,4.000000,100.000000,,,,,,,,,,,,,,,,
1741771334.208106,1741771334.209209,57.000000,0.000000,4341.410156,4341.538574,4376.538574,4377.692383,4340.000000,4498.333496,4373.077148,4360.512695,4208.589844,4329.615234,4462.692383,4454.743652,4397.820313,4426.666504,0.000000,2.000000,48.000000,,,,0.000000,4.000000,4.000000,4.000000,4.000000,4.000000,4.000000,4.000000,4.000000,4.000000,4.000000,4.000000,4.000000,4.000000,4.000000,100.000000,,,,,,,,,,,,,,,,
1741771334.215914,1741771334.217017,58.000000,0.000000,4319.871582,4334.743652,4372.692383,4369.230957,4343.846191,4497.563965,4379.230957,4366.666504,4209.487305,4333.205078,4463.461426,4461.025879,4397.307617,4432.692383,0.000000,2.000000,48.000000,,,,0.000000,4.000000,4.000000,4.000000,4.000000,4.000000,4.000000,4.000000,4.000000,4.000000,4.000000,4.000000,4.000000,4.000000,4.000000,100.000000,,,,,,,,,,,,,,,,
1741771334.223722,1741771334.224725,59.000000,0.000000,4302.307617,4327.692383,4361.538574,4356.025879,4337.948730,4491.666504,4364.743652,4354.487305,4207.179688,4326.410156,4450.000000,4452.692383,4392.307617,4422.179688,0.000000,2.000000,48.000000,,,,0.000000,4.000000,4.000000,4.000000,4.000000,4.000000,4.000000,4.000000,4.000000,4.000000,4.000000,4.000000,4.000000,4.000000,4.000000,100.000000,,,,,,,,,,,,,,,,
1741771334.231530,1741771334.232633,60.000000,0.000000,4314.230957,4330.769043,4357.692383,4354.743652,4328.205078,4486.410156,4358.333496,4348.077148,4205.897461,4325.256348,4447.692383,4447.307617,4390.641113,4417.436035,0.000000,2.000000,48.000000,,,,0.000000,4.000000,4.000000,4.000000,4.000000,4.000000,4.000000,4.000000,4.000000,4.000000,4.000000,4.000000,4.000000,4.000000,4.000000,100.000000,,,,,,,,,,,,,,,,
1741771334.239338,1741771334.240441,61.000000,0.000000,4318.205078,4336.666504,4356.153809,4361.282227,4329.743652,4480.512695,4359.871582,4352.820313,4208.461426,4335.769043,4456.538574,4449.102539,4394.358887,4426.025879,0.000000,2.000000,48.000000,,,,0.000000,4.000000,4.000000,4.000000,4.000000,4.000000,4.000000,4.000000,4.000000,4.000000,4.000000,4.000000,4.000000,4.000000,4.000000,100.000000,,,,,,,,,,,,,,,,
1741771334.247146,1741771334.248349,62.000000,0.000000,4304.102539,4334.102539,4347.563965,4356.410156,4330.128418,4475.000000,4350.641113,4354.358887,4211.282227,4344.615234,4458.589844,4450.512695,4395.769043,4426.666504,0.000000,2.000000,48.000000,,,,0.000000,4.000000,4.000000,4.000000,4.000000,4.000000,4.000000,4.000000,4.000000,4.000000,4.000000,4.000000,4.000000,4.000000,4.000000,100.000000,,,,,,,,,,,,,,,,
1741771334.254954,1741771334.256158,63.000000,0.000000,4303.077148,4327.563965,4344.102539,4348.205078,4326.153809,4473.846191,4337.692383,4351.538574,4206.153809,4341.794922,4456.025879,4453.974121,4394.230957,4421.922852,0.000000,2.000000,48.000000,,,,0.000000,4.000000,4.000000,4.000000,4.000000,4.000000,4.000000,4.000000,4.000000,4.000000,4.000000,4.000000,4.000000,4.000000,4.000000,100.000000,,,,,,,,,,,,,,,,
1741771334.262762,1741771334.263866,64.000000,0.000000,4307.436035,4323.461426,4350.384766,4350.641113,4330.897461,4472.436035,4332.436035,4339.487305,4195.384766,4337.692383,4451.410156,4447.563965,4390.897461,4416.025879,5813.000000,2.000000,48.000000,,,,0.000000,4.000000,4.000000,4.000000,4.000000,4.000000,4.000000,4.000000,4.000000,4.000000,4.000000,4.000000,4.000000,4.000000,4.000000,100.000000,,,,,,,,,,,,,,,,
1741771334.270570,1741771334.271774,65.000000,0.000000,4311.794922,4325.256348,4355.384766,4360.000000,4340.641113,4472.179688,4332.307617,4336.794922,4190.128418,4336.794922,4444.871582,4444.871582,4384.358887,4411.282227,5688.000000,2.000000,48.000000,,,,0.000000,4.000000,4.000000,4.000000,4.000000,4.000000,4.000000,4.000000,4.000000,4.000000,4.000000,4.000000,4.000000,4.000000,4.000000,100.000000,,,,,,,,,,,,,,,,
1741771334.278379,1741771334.279582,66.000000,0.000000,4319.487305,4334.102539,4357.948730,4369.743652,4345.769043,4470.897461,4333.717773,4348.974121,4192.051270,4333.846191,4445.897461,4452.179688,4381.410156,4418.589844,5576.000000,2.000000,48.000000,,,,0.000000,4.000000,4.000000,4.000000,4.000000,4.000000,4.000000,4.000000,4.000000,4.000000,4.000000,4.000000,4.000000,4.000000,4.000000,100.000000,,,,,,,,,,,,,,,,
1741771334.286187,1741771334.287391,67.000000,0.000000,4305.512695,4330.641113,4356.153809,4366.410156,4341.922852,4469.230957,4338.461426,4354.102539,4199.871582,4331.410156,4447.436035,4449.358887,4379.487305,4420.128418,5521.000000,2.000000,48.000000,,,,0.000000,4.000000,4.000000,4.000000,4.000000,4.000000,4.000000,4.000000,4.000000,4.000000,4.000000,4.000000,4.000000,4.000000,4.000000,100.000000,,,,,,,,,,,,,,,,
1741771334.293995,1741771334.295099,68.000000,0.000000,4283.589844,4314.102539,4351.282227,4353.205078,4333.461426,4470.512695,4348.589844,4355.512695,4208.846191,4329.871582,4445.000000,4444.230957,4374.230957,4407.820313,5450.000000,2.000000,48.000000,,,,0.000000,4.000000,4.000000,4.000000,4.000000,4.000000,4.000000,4.000000,4.000000,4.000000,4.000000,4.000000,4.000000,4.000000,4.000000,100.000000,,,,,,,,,,,,,,,,
1741771334.301803,1741771334.302907,69.000000,0.000000,4289.102539,4311.666504,4350.256348,4353.974121,4338.333496,4471.282227,4365.128418,4358.205078,4211.794922,4332.692383,4450.897461,4452.179688,4375.897461,4407.692383,3652.000000,2.000000,48.000000,,,,0.000000,4.000000,4.000000,4.000000,4.000000,4.000000,4.000000,4.000000,4.000000,4.000000,4.000000,4.000000,4.000000,4.000000,4.000000,100.000000,,,,,,,,,,,,,,,,
1741771334.309611,1741771334.310615,70.000000,0.000000,4306.666504,4319.358887,4349.487305,4361.922852,4346.282227,4471.794922,4377.563965,4362.307617,4213.461426,4336.666504,4453.461426,4462.051270,4382.307617,4417.307617,5449.000000,2.000000,48.000000,,,,0.000000,4.000000,4.000000,4.000000,4.000000,4.000000,4.000000,4.000000,4.000000,4.000000,4.000000,4.000000,4.000000,4.000000,4.000000,100.000000,,,,,,,,,,,,,,,,
1741771334.317419,1741771334.318424,71.000000,0.000000,4305.000000,4320.512695,4346.025879,4358.461426,4339.102539,4466.025879,4368.717773,4354.102539,4213.974121,4332.436035,4444.230957,4453.846191,4377.692383,4418.461426,3762.000000,2.000000,48.000000,,,,0.000000,4.000000,4.000000,4.000000,4.000000,4.000000,4.000000,4.000000,4.000000,4.000000,4.000000,4.000000,4.000000,4.000000,4.000000,100.000000,,,,,,,,,,,,,,,,
1741771334.325227,1741771334.326132,72.000000,0.000000,4292.179688,4318.974121,4340.000000,4353.205078,4332.307617,4457.179688,4353.461426,4342.051270,4208.974121,4330.128418,4441.922852,4445.897461,4368.717773,4417.692383,4213.000000,2.000000,48.000000,,,,0.000000,4.000000,4.000000,4.000000,4.000000,4.000000,4.000000,4.000000,4.000000,4.000000,4.000000,4.000000,4.000000,4.000000,4.000000,100.000000,,,,,,,,,,,,,,,,
1741771334.333035,1741771334.333940,73.000000,0.000000,4292.436035,4320.512695,4337.948730,4355.128418,4335.000000,4453.461426,4352.692383,4347.179688,4205.769043,4335.512695,4446.794922,4451.922852,4373.333496,4420.897461,5449.000000,2.000000,48.000000,,,,0.000000,4.000000,4.000000,4.000000,4.000000,4.000000,4.000000,4.000000,4.000000,4.000000,4.000000,4.000000,4.000000,4.000000,4.000000,100.000000,,,,,,,,,,,,,,,,
1741771334.340843,1741771334.341648,74.000000,0.000000,4298.077148,4321.794922,4343.974121,4353.333496,4337.051270,4444.615234,4352.307617,4349.358887,4207.436035,4340.000000,4448.333496,4452.692383,4382.436035,4424.358887,6087.000000,2.000000,48.000000,,,,0.000000,4.000000,4.000000,4.000000,4.000000,4.000000,4.000000,4.000000,4.000000,4.000000,4.000000,4.000000,4.000000,4.000000,4.000000,100.000000,,,,,,,,,,,,,,,,
1741771334.348652,1741771334.349457,75.000000,0.000000,4284.102539,4316.025879,4342.563965,4343.846191,4329.230957,4432.820313,4342.436035,4347.179688,4206.538574,4335.256348,4445.256348,4452.179688,4379.230957,4420.512695,6225.000000,2.000000,48.000000,,,,0.000000,4.000000,4.000000,4.000000,4.000000,4.000000,4.000000,4.000000,4.000000,4.000000,4.000000,4.000000,4.000000,4.000000,4.000000,100.000000,,,,,,,,,,,,,,,,
1741771334.356460,1741771334.357165,76.000000,0.000000,4272.179688,4313.205078,4327.820313,4340.000000,4321.666504,4425.128418,4333.974121,4346.666504,4200.897461,4328.077148,4443.205078,4447.820313,4375.641113,4415.256348,6025.000000,2.000000,48.000000,,,,0.000000,4.000000,4.000000,4.000000,4.000000,4.000000,4.000000,4.000000,4.000000,4.000000,4.000000,4.000000,4.000000,4.000000,4.000000,100.000000,,,,,,,,,,,,,,,,
1741771334.364268,1741771334.365073,77.000000,0.000000,4290.256348,4322.436035,4322.692383,4345.512695,4324.615234,4420.512695,4330.256348,4342.563965,4196.153809,4330.384766,4441.282227,4443.717773,4374.615234,4417.436035,4495.000000,2.000000,48.000000,,,,0.000000,4.000000,4.000000,4.000000,4.000000,4.000000,4.000000,4.000000,4.000000,4.000000,4.000000,4.000000,4.000000,4.000000,4.000000,100.000000,,,,,,,,,,,,,,,,
1741771334.372076,1741771334.372881,78.000000,0.000000,4303.077148,4330.512695,4333.205078,4349.615234,4329.743652,4417.820313,4333.589844,4347.948730,4194.743652,4330.256348,4437.179688,4451.666504,4366.025879,4414.615234,6087.000000,2.000000,48.000000,,,,0.000000,4.000000,4.000000,4.000000,4.000000,4.000000,4.000000,4.000000,4.000000,4.000000,4.000000,4.000000,4.000000,4.000000,4.000000,100.000000,,,,,,,,,,,,,,,,
1741771334.379884,1741771334.380789,79.000000,0.000000,4296.410156,4328.205078,4337.563965,4350.641113,4332.051270,4412.051270,4339.358887,4349.358887,4191.025879,4322.307617,4431.025879,4451.410156,4363.717773,4408.461426,6225.000000,2.000000,48.000000,,,,0.000000,4.000000,4.000000,4.000000,4.000000,4.000000,4.000000,4.000000,4.000000,4.000000,4.000000,4.000000,4.000000,4.000000,4.000000,100.000000,,,,,,,,,,,,,,,,
1741771334.387692,1741771334.388598,80.000000,0.000000,4294.358887,4323.717773,4332.307617,4349.230957,4330.641113,4407.051270,4344.743652,4345.512695,4189.743652,4319.615234,4433.461426,4448.589844,4368.461426,4410.128418,6025.000000,2.000000,48.000000,,,,0.000000,4.000000,4.000000,4.000000,4.000000,4.000000,4.000000,4.000000,4.000000,4.000000,4.000000,4.000000,4.000000,4.000000,4.000000,100.000000,,,,,,,,,,,,,,,,
1741771334.395500,1741771334.396506,81.000000,0.000000,4297.307617,4328.333496,4332.179688,4353.205078,4332.179688,4404.102539,4353.077148,4347.051270,4193.333496,4316.666504,4443.077148,4449.358887,4370.512695,4418.205078,4495.000000,2.000000,48.000000,,,,0.000000,4.000000,4.000000,4.000000,4.000000,4.000000,4.000000,4.000000,4.000000,4.000000,4.000000,4.000000,4.000000,4.000000,4.000000,100.000000,,,,,,,,,,,,,,,,
1741771334.403308,1741771334.404314,82.000000,0.000000,4294.871582,4335.256348,4330.769043,4359.230957,4335.000000,4399.230957,4355.000000,4342.051270,4192.051270,4310.256348,4437.692383,4445.128418,4370.769043,4419.102539,6087.000000,2.000000,48.000000,,,,0.000000,4.000000,4.000000,4.000000,4.000000,4.000000,4.000000,4.000000,4.000000,4.000000,4.000000,4.000000,4.000000,4.000000,4.000000,100.000000,,,,,,,,,,,,,,,,
1741771334.411116,1741771334.412222,83.000000,0.000000,4288.589844,4328.077148,4318.461426,4348.717773,4331.153809,4394.230957,4349.487305,4336.282227,4187.820313,4304.358887,4425.769043,4449.230957,4368.333496,4411.922852,6225.000000,2.000000,48.000000,,,,0.000000,4.000000,4.000000,4.000000,4.000000,4.000000,4.000000,4.000000,4.000000,4.000000,4.000000,4.000000,4.000000,4.000000,4.000000,100.000000,,,,,,,,,,,,,,,,
1741771334.418924,1741771334.420030,84.000000,0.000000,4286.538574,4315.256348,4314.230957,4332.179688,4321.282227,4383.589844,4340.256348,4331.538574,4191.282227,4300.769043,4428.974121,4449.743652,4369.743652,4409.230957,6025.000000,2.000000,48.000000,,,,0.000000,4.000000,4.000000,4.000000,4.000000,4.000000,4.000000,4.000000,4.000000,4.000000,4.000000,4.000000,4.000000,4.000000,4.000000,100.000000,,,,,,,,,,,,,,,,
1741771334.426732,1741771334.427838,85.000000,0.000000,4281.025879,4307.436035,4315.256348,4325.512695,4307.563965,4373.461426,4332.307617,4324.871582,4195.000000,4298.461426,4434.871582,4439.358887,4370.641113,4406.410156,4495.000000,2.000000,48.000000,,,,0.000000,4.000000,4.000000,4.000000,4.000000,4.000000,4.000000,4.000000,4.000000,4.000000,4.000000,4.000000,4.000000,4.000000,4.000000,100.000000,,,,,,,,,,,,,,,,
1741771334.434541,1741771334.435547,86.000000,0.000000,4264.230957,4297.820313,4303.461426,4317.563965,4297.436035,4375.512695,4325.000000,4321.410156,4192.692383,4288.846191,4420.384766,4430.769043,4351.794922,4391.666504,6087.000000,2.000000,48.000000,,,,0.000000,4.000000,4.000000,4.000000,4.000000,4.000000,4.000000,4.000000,4.000000,4.000000,4.000000,4.000000,4.000000,4.000000,4.000000,100.000000,,,,,,,,,,,,,,,,
1741771334.442349,1741771334.443455,87.000000,0.000000,4262.436035,4293.077148,4296.282227,4312.563965,4303.589844,4377.436035,4316.922852,4314.487305,4195.384766,4280.128418,4399.871582,4422.692383,4331.282227,4378.717773,6225.000000,2.000000,48.000000,,,,0.000000,4.000000,4.000000,4.000000,4.000000,4.000000,4.000000,4.000000,4.000000,4.000000,4.000000,4.000000,4.000000,4.000000,4.000000,100.000000,,,,,,,,,,,,,,,,
1741771334.450157,1741771334.451263,88.000000,0.000000,4284.102539,4303.077148,4311.153809,4323.333496,4316.922852,4375.641113,4318.077148,4319.102539,4212.563965,4290.256348,4410.641113,4427.436035,4345.897461,4395.769043,6025.000000,2.000000,48.000000,,,,0.000000,4.000000,4.000000,4.000000,4.000000,4.000000,4.000000,4.000000,4.000000,4.000000,4.000000,4.000000,4.000000,4.000000,4.000000,100.000000,,,,,,,,,,,,,,,,
1741771334.457965,1741771334.458971,89.000000,0.000000,4301.922852,4316.922852,4329.102539,4340.128418,4321.410156,4373.846191,4324.615234,4334.871582,4236.538574,4308.333496,4439.743652,4443.461426,4376.025879,4418.077148,4495.000000,2.000000,48.000000,,,,0.000000,4.000000,4.000000,4.000000,4.000000,4.000000,4.000000,4.000000,4.000000,4.000000,4.000000,4.000000,4.000000,4.000000,4.000000,100.000000,,,,,,,,,,,,,,,,
1741771334.465773,1741771334.466780,90.000000,0.000000,4303.461426,4321.410156,4331.538574,4346.794922,4321.410156,4368.205078,4323.205078,4340.128418,4250.384766,4306.153809,4449.230957,4452.948730,4380.897461,4419.358887,6087.000000,2.000000,48.000000,,,,0.000000,4.000000,4.000000,4.000000,4.000000,4.000000,4.000000,4.000000,4.000000,4.000000,4.000000,4.000000,4.000000,4.000000,4.000000,100.000000,1.000000,41.666668,4.000000,3.000000,3.000000,4.000000,4.000000,1.000000,4.000000,4.000000,1.000000,3.000000,4.000000,4.000000,4.000000,4.000000
1741771334.473581,1741771334.474488,91.000000,0.000000,4303.717773,4316.282227,4332.563965,4345.769043,4320.897461,4366.153809,4327.436035,4338.974121,4259.230957,4291.025879,4443.461426,4457.563965,4375.512695,4422.179688,6225.000000,2.000000,48.000000,,,,0.000000,4.000000,4.000000,4.000000,4.000000,4.000000,4.000000,4.000000,4.000000,4.000000,4.000000,4.000000,4.000000,4.000000,4.000000,100.000000,,,,,,,,,,,,,,,,
1741771334.481389,1741771334.482396,92.000000,0.000000,4311.922852,4318.717773,4344.358887,4350.769043,4323.846191,4370.641113,4347.179688,4338.846191,4274.743652,4289.743652,4448.717773,4461.794922,4387.436035,4435.897461,6025.000000,2.000000,48.000000,,,,0.000000,4.000000,4.000000,4.000000,4.000000,4.000000,4.000000,4.000000,4.000000,4.000000,4.000000,4.000000,4.000000,4.000000,4.000000,100.000000,,,,,,,,,,,,,,,,
1741771334.489197,1741771334.490204,93.000000,0.000000,4311.410156,4326.538574,4342.948730,4352.436035,4323.333496,4367.820313,4352.051270,4340.128418,4287.692383,4283.589844,4448.077148,4463.077148,4390.128418,4437.307617,4495.000000,2.000000,48.000000,,,,0.000000,4.000000,4.000000,4.000000,4.000000,4.000000,4.000000,4.000000,4.000000,4.000000,4.000000,4.000000,4.000000,4.000000,4.000000,100.000000,,,,,,,,,,,,,,,,
1741771334.497005,1741771334.498012,94.000000,0.000000,4295.256348,4316.410156,4323.846191,4339.743652,4312.307617,4355.000000,4336.410156,4340.384766,4291.153809,4263.974121,4431.410156,4455.512695,4370.000000,4420.384766,6087.000000,2.000000,48.000000,,,,0.000000,4.000000,4.000000,4.000000,4.000000,4.000000,4.000000,4.000000,4.000000,4.000000,4.000000,4.000000,4.000000,4.000000,4.000000,100.000000,,,,,,,,,,,,,,,,
1741771334.504814,1741771334.505721,95.000000,0.000000,4282.436035,4298.461426,4313.974121,4325.897461,4309.615234,4351.666504,4330.769043,4333.717773,4294.615234,4259.102539,4417.692383,4442.692383,4356.153809,4407.307617,6225.000000,2.000000,48.000000,,,,0.000000,4.000000,4.000000,4.000000,4.000000,4.000000,4.000000,4.000000,4.000000,4.000000,4.000000,4.000000,4.000000,4.000000,4.000000,100.000000,,,,,,,,,,,,,,,,
1741771334.512622,1741771334.513529,96.000000,0.000000,4276.410156,4297.692383,4311.922852,4321.922852,4317.307617,4356.538574,4329.615234,4326.025879,4306.922852,4261.153809,4413.717773,4436.410156,4356.025879,4405.384766,6025.000000,2.000000,48.000000,,,,0.000000,4.000000,4.000000,4.000000,4.000000,4.000000,4.000000,4.000000,4.000000,4.000000,4.000000,4.000000,4.000000,4.000000,4.000000,100.000000,,,,,,,,,,,,,,,,
1741771334.520430,1741771334.521237,97.000000,0.000000,4273.461426,4305.641113,4302.436035,4322.179688,4315.000000,4347.820313,4316.282227,4317.948730,4321.153809,4255.897461,4415.000000,4435.000000,4356.666504,4403.077148,4495.000000,2.000000,48.000000,,,,0.000000,4.000000,4.000000,4.000000,4.000000,4.000000,4.000000,4.000000,4.000000,4.000000,4.000000,4.000000,4.000000,4.000000,4.000000,100.000000,,,,,,,,,,,,,,,,
1741771334.528238,1741771334.529045,98.000000,0.000000,4278.717773,4306.538574,4295.769043,4323.461426,4303.205078,4335.000000,4301.538574,4318.717773,4333.205078,4255.641113,4412.051270,4440.384766,4352.948730,4394.487305,6087.000000,2.000000,48.000000,,,,0.000000,4.000000,4.000000,4.000000,4.000000,4.000000,4.000000,4.000000,4.000000,4.000000,4.000000,4.000000,4.000000,4.000000,4.000000,100.000000,,,,,,,,,,,,,,,,
1741771334.536046,1741771334.536754,99.000000,0.000000,4293.461426,4316.282227,4306.794922,4331.025879,4306.922852,4330.769043,4297.692383,4319.230957,4342.563965,4260.000000,4414.358887,4439.358887,4362.051270,4401.538574,6225.000000,2.000000,48.000000,,,,0.000000,4.000000,4.000000,4.000000,4.000000,4.000000,4.000000,4.000000,4.000000,4.000000,4.000000,4.000000,4.000000,4.000000,4.000000,100.000000,,,,,,,,,,,,,,,,
1741771334.543854,1741771334.544562,100.000000,0.000000,4298.077148,4323.333496,4317.307617,4334.230957,4316.282227,4331.922852,4299.487305,4313.974121,4348.717773,4262.179688,4428.717773,4438.333496,4379.743652,4421.794922,6025.000000,2.000000,48.000000,,,,0.000000,4.000000,4.000000,4.000000,4.000000,4.000000,4.000000,4.000000,4.000000,4.000000,4.000000,4.000000,4.000000,4.000000,4.000000,100.000000,,,,,,,,,,,,,,,,
1741771334.551662,1741771334.552270,101.000000,0.000000,4281.794922,4303.846191,4308.974121,4323.333496,4307.563965,4332.436035,4305.256348,4324.358887,4351.922852,4258.974121,4432.307617,4448.461426,4374.743652,4414.487305,4495.000000,2.000000,48.000000,,,,0.000000,4.000000,4.000000,4.000000,4.000000,4.000000,4.000000,4.000000,4.000000,4.000000,4.000000,4.000000,4.000000,4.000000,4.000000,100.000000,,,,,,,,,,,,,,,,
1741771334.559470,1741771334.560178,102.000000,0.000000,4276.282227,4295.384766,4306.922852,4319.743652,4302.307617,4327.948730,4315.897461,4327.692383,4352.051270,4254.487305,4422.692383,4440.128418,4363.717773,4403.077148,6087.000000,2.000000,48.000000,,,,0.000000,4.000000,4.000000,4.000000,4.000000,4.000000,4.000000,4.000000,4.000000,4.000000,4.000000,4.000000,4.000000,4.000000,4.000000,100.000000,,,,,,,,,,,,,,,,
1741771334.567278,1741771334.567987,103.000000,0.000000,4295.512695,4314.871582,4324.358887,4334.358887,4311.922852,4328.461426,4331.666504,4330.641113,4358.589844,4256.538574,4430.128418,4442.179688,4370.000000,4419.743652,6225.000000,2.000000,48.000000,,,,0.000000,4.000000,4.000000,4.000000,4.000000,4.000000,4.000000,4.000000,4.000000,4.000000,4.000000,4.000000,4.000000,4.000000,4.000000,100.000000,,,,,,,,,,,,,,,,
1741771334.575086,1741771334.575895,104.000000,0.000000,4303.589844,4319.487305,4330.000000,4339.102539,4316.794922,4326.666504,4338.461426,4340.000000,4367.820313,4252.820313,4441.410156,4455.256348,4371.025879,4425.512695,6025.000000,2.000000,48.000000,,,,0.000000,4.000000,4.000000,4.000000,4.000000,4.000000,4.000000,4.000000,4.000000,4.000000,4.000000,4.000000,4.000000,4.000000,4.000000,100.000000,,,,,,,,,,,,,,,,
1741771334.582894,1741771334.583703,105.000000,0.000000,4281.410156,4293.974121,4312.179688,4319.743652,4309.615234,4320.512695,4327.179688,4326.153809,4364.615234,4238.333496,4428.974121,4440.641113,4356.538574,4402.948730,4495.000000,2.000000,48.000000,,,,0.000000,4.000000,4.000000,4.000000,4.000000,4.000000,4.000000,4.000000,4.000000,4.000000,4.000000,4.000000,4.000000,4.000000,4.000000,100.000000,,,,,,,,,,,,,,,,
1741771334.590703,1741771334.591611,106.000000,0.000000,4271.153809,4281.153809,4308.589844,4310.256348,4305.512695,4322.563965,4324.743652,4324.230957,4363.077148,4234.230957,4425.769043,4440.897461,4356.794922,4400.000000,6087.000000,2.000000,48.000000,,,,0.000000,4.000000,4.000000,4.000000,4.000000,4.000000,4.000000,4.000000,4.000000,4.000000,4.000000,4.000000,4.000000,4.000000,4.000000,100.000000,,,,,,,,,,,,,,,,
1741771334.598511,1741771334.599419,107.000000,0.000000,4297.563965,4304.487305,4330.128418,4332.179688,4317.179688,4323.461426,4335.128418,4340.897461,4373.974121,4247.307617,4442.820313,4458.461426,4374.615234,4425.000000,6225.000000,2.000000,48.000000,,,,0.000000,4.000000,4.000000,4.000000,4.000000,4.000000,4.000000,4.000000,4.000000,4.000000,4.000000,4.000000,4.000000,4.000000,4.000000,100.000000,,,,,,,,,,,,,,,,
1741771334.606319,1741771334.607327,108.000000,0.000000,4322.948730,4326.922852,4344.358887,4354.102539,4328.205078,4322.051270,4334.743652,4343.077148,4385.384766,4260.384766,4453.717773,4466.538574,4385.897461,4444.871582,6025.000000,2.000000,48.000000,,,,0.000000,4.000000,4.000000,4.000000,4.000000,4.000000,4.000000,4.000000,4.000000,4.000000,4.000000,4.000000,4.000000,4.000000,4.000000,100.000000,,,,,,,,,,,,,,,,
1741771334.614127,1741771334.615135,109.000000,0.000000,4320.897461,4322.692383,4341.025879,4349.230957,4322.179688,4322.436035,4323.717773,4341.025879,4388.717773,4262.051270,4450.256348,4465.769043,4379.102539,4440.256348,4495.000000,2.000000,48.000000,,,,0.000000,4.000000,4.000000,4.000000,4.000000,4.000000,4.000000,4.000000,4.000000,4.000000,4.000000,4.000000,4.000000,4.000000,4.000000,100.000000,,,,,,,,,,,,,,,,
1741771334.621935,1741771334.623044,110.000000,0.000000,4304.743652,4310.384766,4332.820313,4336.794922,4311.538574,4320.128418,4314.358887,4336.025879,4383.461426,4256.538574,4437.692383,4454.358887,4363.333496,4416.025879,6087.000000,2.000000,48.000000,,,,0.000000,4.000000,4.000000,4.000000,4.000000,4.000000,4.000000,4.000000,4.000000,4.000000,4.000000,4.000000,4.000000,4.000000,4.000000,100.000000,,,,,,,,,,,,,,,,
1741771334.629743,1741771334.630852,111.000000,0.000000,4294.871582,4303.205078,4329.615234,4333.974121,4312.179688,4322.563965,4317.563965,4333.333496,4382.948730,4254.871582,4440.512695,4455.512695,4364.743652,4410.128418,6225.000000,2.000000,48.000000,,,,0.000000,4.000000,4.000000,4.000000,4.000000,4.000000,4.000000,4.000000,4.000000,4.000000,4.000000,4.000000,4.000000,4.000000,4.000000,100.000000,,,,,,,,,,,,,,,,
1741771334.637551,1741771334.638760,112.000000,0.000000,4293.717773,4296.666504,4329.230957,4333.077148,4313.846191,4328.077148,4329.102539,4336.922852,4386.410156,4259.230957,4453.589844,4461.410156,4376.794922,4419.743652,6025.000000,2.000000,48.000000,,,,0.000000,4.000000,4.000000,4.000000,4.000000,4.000000,4.000000,4.000000,4.000000,4.000000,4.000000,4.000000,4.000000,4.000000,4.000000,100.000000,,,,,,,,,,,,,,,,
1741771334.645359,1741771334.646568,113.000000,0.000000,4292.948730,4293.589844,4322.948730,4325.256348,4309.743652,4328.589844,4337.179688,4334.743652,4376.922852,4255.769043,4443.077148,4453.077148,4367.820313,4410.128418,4495.000000,2.000000,48.000000,,,,0.000000,4.000000,4.000000,4.000000,4.000000,4.000000,4.000000,4.000000,4.000000,4.000000,4.000000,4.000000,4.000000,4.000000,4.000000,100.000000,,,,,,,,,,,,,,,,
1741771334.653167,1741771334.654276,114.000000,0.000000,4292.692383,4299.487305,4321.282227,4323.077148,4314.743652,4331.410156,4348.461426,4333.974121,4367.692383,4247.563965,4428.589844,4453.974121,4353.461426,4402.820313,6087.000000,2.000000,48.000000,,,,0.000000,4.000000,4.000000,4.000000,4.000000,4.000000,4.000000,4.000000,4.000000,4.000000,4.000000,4.000000,4.000000,4.000000,4.000000,100.000000,,,,,,,,,,,,,,,,
1741771334.660976,1741771334.662085,115.000000,0.000000,4306.410156,4317.179688,4337.436035,4339.102539,4329.487305,4336.025879,4361.410156,4341.922852,4375.256348,4256.794922,4444.871582,4468.333496,4367.179688,4426.666504,6225.000000,2.000000,48.000000,,,,0.000000,4.000000,4.000000,4.000000,4.000000,4.000000,4.000000,4.000000,4.000000,4.000000,4.000000,4.000000,4.000000,4.000000,4.000000,100.000000,,,,,,,,,,,,,,,,
1741771334.668784,1741771334.669793,116.000000,0.000000,4317.307617,4330.512695,4349.487305,4349.230957,4327.436035,4332.692383,4355.769043,4351.025879,4379.230957,4264.743652,4456.282227,4473.461426,4377.179688,4441.025879,6025.000000,2.000000,48.000000,,,,0.000000,4.000000,4.000000,4.000000,4.000000,4.000000,4.000000,4.000000,4.000000,4.000000,4.000000,4.000000,4.000000,4.000000,4.000000,100.000000,,,,,,,,,,,,,,,,
1741771334.676592,1741771334.677601,117.000000,0.000000,4302.948730,4317.692383,4342.692383,4336.410156,4310.769043,4322.436035,4341.794922,4348.717773,4371.410156,4257.820313,4444.102539,4467.563965,4361.282227,4424.743652,4495.000000,2.000000,48.000000,,,,0.000000,4.000000,4.000000,4.000000,4.000000,4.000000,4.000000,4.000000,4.000000,4.000000,4.000000,4.000000,4.000000,4.000000,4.000000,100.000000,,,,,,,,,,,,,,,,
1741771334.684400,1741771334.685309,118.000000,0.000000,4289.615234,4298.077148,4341.922852,4324.871582,4305.641113,4319.358887,4343.205078,4345.128418,4371.666504,4259.358887,4444.358887,4468.846191,4358.461426,4412.307617,6087.000000,2.000000,48.000000,,,,0.000000,4.000000,4.000000,4.000000,4.000000,4.000000,4.000000,4.000000,4.000000,4.000000,4.000000,4.000000,4.000000,4.000000,4.000000,100.000000,,,,,,,,,,,,,,,,
1741771334.692208,1741771334.693218,119.000000,0.000000,4304.358887,4302.692383,4353.461426,4331.922852,4311.153809,4326.153809,4343.333496,4350.512695,4376.538574,4262.692383,4451.153809,4472.692383,4368.461426,4417.692383,6225.000000,2.000000,48.000000,,,,0.000000,4.000000,4.000000,4.000000,4.000000,4.000000,4.000000,4.000000,4.000000,4.000000,4.000000,4.000000,4.000000,4.000000,4.000000,100.000000,,,,,,,,,,,,,,,,
1741771334.700016,1741771334.701026,120.000000,0.000000,4326.538574,4323.333496,4359.102539,4344.871582,4316.666504,4323.717773,4324.743652,4345.512695,4373.333496,4257.563965,4443.974121,4468.717773,4366.410156,4431.538574,6025.000000,2.000000,48.000000,,,,0.000000,4.000000,4.000000,4.000000,4.000000,4.000000,4.000000,4.000000,4.000000,4.000000,4.000000,4.000000,4.000000,4.000000,4.000000,100.000000,,,,,,,,,,,,,,,,
1741771334.707824,1741771334.708934,121.000000,0.000000,4330.384766,4334.230957,4353.846191,4347.563965,4315.512695,4316.794922,4310.384766,4336.410156,4367.051270,4253.589844,4434.743652,4467.307617,4357.563965,4433.974121,4495.000000,2.000000,48.000000,,,,0.000000,4.000000,4.000000,4.000000,4.000000,4.000000,4.000000,4.000000,4.000000,4.000000,4.000000,4.000000,4.000000,4.000000,4.000000,100.000000,,,,,,,,,,,,,,,,
1741771334.715632,1741771334.716742,122.000000,0.000000,4316.025879,4325.000000,4347.948730,4342.179688,4314.871582,4323.846191,4314.358887,4337.179688,4367.307617,4254.871582,4430.128418,4463.846191,4351.153809,4420.000000,6087.000000,2.000000,48.000000,,,,0.000000,4.000000,4.000000,4.000000,4.000000,4.000000,4.000000,4.000000,4.000000,4.000000,4.000000,4.000000,4.000000,4.000000,4.000000,100.000000,,,,,,,,,,,,,,,,
1741771334.723440,1741771334.724550,123.000000,0.000000,4298.846191,4310.384766,4349.102539,4338.461426,4320.512695,4335.641113,4323.846191,4341.410156,4373.717773,4262.948730,4430.897461,4459.487305,4347.436035,4408.974121,6225.000000,2.000000,48.000000,,,,0.000000,4.000000,4.000000,4.000000,4.000000,4.000000,4.000000,4.000000,4.000000,4.000000,4.000000,4.000000,4.000000,4.000000,4.000000,100.000000,,,,,,,,,,,,,,,,
1741771334.731249,1741771334.732259,124.000000,0.000000,4304.358887,4313.333496,4356.282227,4342.051270,4319.487305,4337.436035,4330.512695,4347.307617,4372.692383,4266.153809,4437.692383,4466.025879,4350.512695,4415.128418,6025.000000,2.000000,48.000000,,,,0.000000,4.000000,4.000000,4.000000,4.000000,4.000000,4.000000,4.000000,4.000000,4.000000,4.000000,4.000000,4.000000,4.000000,4.000000,100.000000,,,,,,,,,,,,,,,,
1741771334.739056,1741771334.740067,125.000000,0.000000,4330.256348,4332.051270,4365.384766,4350.769043,4313.974121,4333.717773,4338.589844,4349.358887,4364.743652,4264.743652,4444.743652,4473.205078,4359.230957,4433.461426,4495.000000,2.000000,48.000000,,,,0.000000,4.000000,4.000000,4.000000,4.000000,4.000000,4.000000,4.000000,4.000000,4.000000,4.000000,4.000000,4.000000,4.000000,4.000000,100.000000,,,,,,,,,,,,,,,,
1741771334.746865,1741771334.747775,126.000000,0.000000,4340.000000,4341.282227,4371.922852,4356.666504,4316.922852,4339.230957,4352.051270,4352.179688,4361.153809,4272.563965,4447.307617,4481.282227,4362.563965,4441.410156,6087.000000,2.000000,48.000000,,,,0.000000,4.000000,4.000000,4.000000,4.000000,4.000000,4.000000,4.000000,4.000000,4.000000,4.000000,4.000000,4.000000,4.000000,4.000000,100.000000,,,,,,,,,,,,,,,,
1741771334.754673,1741771334.755583,127.000000,0.000000,4332.436035,4340.512695,4373.205078,4359.615234,4327.692383,4347.179688,4361.025879,4355.000000,4352.436035,4276.538574,4447.436035,4484.487305,4356.153809,4441.666504,48.000000,2.000000,48.000000,,,,0.000000,4.000000,4.000000,4.000000,4.000000,4.000000,4.000000,4.000000,4.000000,4.000000,4.000000,4.000000,4.000000,4.000000,4.000000,100.000000,,,,,,,,,,,,,,,,
1741771334.762481,1741771334.763292,0.000000,0.000000,4338.461426,4346.410156,4370.641113,4363.461426,4331.922852,4345.641113,4357.436035,4349.230957,4336.282227,4270.384766,4441.666504,4473.205078,4347.307617,4446.538574,5838.000000,2.000000,48.000000,,,,0.000000,4.000000,4.000000,4.000000,4.000000,4.000000,4.000000,4.000000,4.000000,4.000000,4.000000,4.000000,4.000000,4.000000,4.000000,100.000000,,,,,,,,,,,,,,,,
1741771334.770289,1741771334.771200,1.000000,0.000000,4351.794922,4348.974121,4367.948730,4362.051270,4320.512695,4342.307617,4350.384766,4351.282227,4326.538574,4266.794922,4435.641113,4472.179688,4342.179688,4447.948730,5723.000000,2.000000,48.000000,,,,0.000000,4.000000,4.000000,4.000000,4.000000,4.000000,4.000000,4.000000,4.000000,4.000000,4.000000,4.000000,4.000000,4.000000,4.000000,100.000000,,,,,,,,,,,,,,,,
1741771334.778097,1741771334.779008,2.000000,0.000000,4348.974121,4344.230957,4372.051270,4359.487305,4313.461426,4339.743652,4341.666504,4355.128418,4320.897461,4271.666504,4434.487305,4482.051270,4341.025879,4444.358887,5589.000000,2.000000,48.000000,,,,0.000000,4.000000,4.000000,4.000000,4.000000,4.000000,4.000000,4.000000,4.000000,4.000000,4.000000,4.000000,4.000000,4.000000,4.000000,100.000000,,,,,,,,,,,,,,,,
1741771334.785905,1741771334.786916,3.000000,0.000000,4345.000000,4344.871582,4378.077148,4361.794922,4319.615234,4338.333496,4328.077148,4349.230957,4313.205078,4277.820313,4439.615234,4484.487305,4339.230957,4447.563965,5547.000000,2.000000,48.000000,,,,0.000000,4.000000,4.000000,4.000000,4.000000,4.000000,4.000000,4.000000,4.000000,4.000000,4.000000,4.000000,4.000000,4.000000,4.000000,100.000000,,,,,,,,,,,,,,,,
1741771334.793713,1741771334.794724,4.000000,0.000000,4351.410156,4351.666504,4374.871582,4362.436035,4320.384766,4335.512695,4318.589844,4342.948730,4302.436035,4271.922852,4440.769043,4481.666504,4332.436035,4448.077148,5467.000000,2.000000,48.000000,,,,0.000000,4.000000,4.000000,4.000000,4.000000,4.000000,4.000000,4.000000,4.000000,4.000000,4.000000,4.000000,4.000000,4.000000,4.000000,100.000000,,,,,,,,,,,,,,,,
1741771334.801521,1741771334.802632,5.000000,0.000000,4346.153809,4348.461426,4370.512695,4357.436035,4312.307617,4327.179688,4315.512695,4335.769043,4290.384766,4267.948730,4433.717773,4475.641113,4325.641113,4435.384766,3684.000000,2.000000,48.000000,,,,0.000000,4.000000,4.000000,4.000000,4.000000,4.000000,4.000000,4.000000,4.000000,4.000000,4.000000,4.000000,4.000000,4.000000,4.000000,100.000000,,,,,,,,,,,,,,,,
1741771334.809329,1741771334.810441,6.000000,0.000000,4326.538574,4331.153809,4358.717773,4343.461426,4304.871582,4320.769043,4311.153809,4329.102539,4283.717773,4271.410156,4427.563965,4466.922852,4319.871582,4423.974121,5479.000000,2.000000,48.000000,,,,0.000000,4.000000,4.000000,4.000000,4.000000,4.000000,4.000000,4.000000,4.000000,4.000000,4.000000,4.000000,4.000000,4.000000,4.000000,100.000000,,,,,,,,,,,,,,,,
1741771334.817138,1741771334.818349,7.000000,0.000000,4325.512695,4326.794922,4333.717773,4332.307617,4304.615234,4319.102539,4309.230957,4324.871582,4279.230957,4271.922852,4419.743652,4458.333496,4313.589844,4424.102539,3794.000000,2.000000,48.000000,,,,0.000000,4.000000,4.000000,4.000000,4.000000,4.000000,4.000000,4.000000,4.000000,4.000000,4.000000,4.000000,4.000000,4.000000,4.000000,100.000000,,,,,,,,,,,,,,,,
1741771334.824946,1741771334.826157,8.000000,0.000000,4342.179688,4349.102539,4328.974121,4343.333496,4314.871582,4322.563965,4321.025879,4328.974121,4281.153809,4280.641113,4418.077148,4462.563965,4316.538574,4435.256348,4220.000000,2.000000,48.000000,,,,0.000000,4.000000,4.000000,4.000000,4.000000,4.000000,4.000000,4.000000,4.000000,4.000000,4.000000,4.000000,4.000000,4.000000,4.000000,100.000000,,,,,,,,,,,,,,,,
1741771334.832754,1741771334.833965,9.000000,0.000000,4350.769043,4369.871582,4354.871582,4360.384766,4322.436035,4325.000000,4338.461426,4345.641113,4292.820313,4295.897461,4433.333496,4481.538574,4327.436035,4452.948730,5494.000000,2.000000,48.000000,,,,0.000000,4.000000,4.000000,4.000000,4.000000,4.000000,4.000000,4.000000,4.000000,4.000000,4.000000,4.000000,4.000000,4.000000,4.000000,100.000000,,,,,,,,,,,,,,,,
1741771334.840562,1741771334.841773,10.000000,0.000000,4352.563965,4365.128418,4366.666504,4358.974121,4318.205078,4315.769043,4343.846191,4349.615234,4296.025879,4299.102539,4443.589844,4486.794922,4328.846191,4455.769043,6132.000000,2.000000,48.000000,,,,0.000000,4.000000,4.000000,4.000000,4.000000,4.000000,4.000000,4.000000,4.000000,4.000000,4.000000,4.000000,4.000000,4.000000,4.000000,100.000000,,,,,,,,,,,,,,,,
1741771334.848370,1741771334.849482,11.000000,0.000000,4351.794922,4352.179688,4349.230957,4351.794922,4312.436035,4307.051270,4341.922852,4343.589844,4287.692383,4291.538574,4432.051270,4478.333496,4321.794922,4446.410156,6237.000000,2.000000,48.000000,,,,0.000000,4.000000,4.000000,4.000000,4.000000,4.000000,4.000000,4.000000,4.000000,4.000000,4.000000,4.000000,4.000000,4.000000,4.000000,100.000000,,,,,,,,,,,,,,,,
